Samp. Freq.(Hz)   Sample#   Pulse Length (ms)
10000.000000	10000.000000	100.000000
	
Voltage(V) 
0.160182
0.160827
0.161150
0.165342
0.160182
0.160505
0.159860
0.160505
0.159537
0.159860
0.159860
0.161150
0.159537
0.157602
0.158892
0.161472
0.161150
0.160182
0.160182
0.161794
0.160827
0.160182
0.161150
0.160827
0.161472
0.159860
0.160505
0.160505
0.161150
0.159860
0.160505
0.160505
0.162117
0.159860
0.160505
0.161150
0.161150
0.160505
0.160505
0.160827
0.160505
0.160827
0.160182
0.161794
0.161472
0.161794
0.160505
0.160827
0.161472
0.162117
0.160505
0.161472
0.161150
0.161794
0.161472
0.161150
0.161472
0.161794
0.161472
0.161150
0.161472
0.161794
0.160827
0.161794
0.162117
0.161472
0.162117
0.161472
0.161794
0.162117
0.161472
0.160827
0.161472
0.162439
0.162439
0.160827
0.161150
0.161472
0.161794
0.162117
0.160827
0.161794
0.162762
0.161472
0.160827
0.161472
0.161794
0.162117
0.160505
0.160182
0.162117
0.161794
0.160827
0.160827
0.161472
0.160827
0.160505
0.161150
0.161472
0.164697
0.161794
0.161472
0.161150
0.162117
0.160505
0.161794
0.162439
0.160827
0.161472
0.161472
0.160827
0.161472
0.162117
0.161150
0.161472
0.161150
0.162117
0.161794
0.161150
0.161150
0.161794
0.161150
0.161472
0.161472
0.162117
0.161150
0.161794
0.160827
0.161794
0.161150
0.161150
0.160505
0.161794
0.161150
0.161472
0.161472
0.161794
0.161472
0.161150
0.161472
0.161472
0.162117
0.161150
0.161472
0.161794
0.161150
0.161150
0.160827
0.161150
0.161150
0.161472
0.160505
0.161150
0.157602
0.160505
0.159537
0.160827
0.161150
0.160505
0.159215
0.161150
0.160505
0.161472
0.159537
0.160182
0.161150
0.161150
0.160505
0.160827
0.160182
0.161472
0.161150
0.159537
0.159860
0.160182
0.161472
0.159860
0.160182
0.160505
0.161472
0.160827
0.160182
0.161150
0.161794
0.161150
0.161150
0.161150
0.161794
0.161150
0.161150
0.161472
0.161794
0.160505
0.161472
0.161472
0.162439
0.161150
0.161472
0.162117
0.161150
0.158570
0.154378
0.149218
0.145671
0.142124
0.136642
0.133094
0.130192
0.126967
0.124065
0.119550
0.117938
0.116648
0.113423
0.109876
0.108586
0.107619
0.105039
0.102782
0.101492
0.099879
0.098912
0.096655
0.095687
0.094075
0.093752
0.092140
0.091173
0.090528
0.089238
0.088270
0.087303
0.086658
0.086658
0.084723
0.084401
0.084078
0.084078
0.083111
0.082788
0.081498
0.082466
0.081176
0.079886
0.080854
0.080854
0.080531
0.078919
0.078919
0.079564
0.079886
0.078274
0.077306
0.077951
0.079241
0.077629
0.076984
0.077951
0.077306
0.077629
0.076339
0.076339
0.076984
0.077306
0.076016
0.076339
0.076016
0.076661
0.076339
0.076016
0.076016
0.076984
0.076016
0.076339
0.076339
0.076016
0.076016
0.075694
0.075694
0.076339
0.075049
0.075694
0.075371
0.075694
0.075371
0.074727
0.075049
0.075371
0.075371
0.075371
0.075049
0.075049
0.075694
0.075049
0.074404
0.074727
0.075049
0.075049
0.074082
0.074404
0.075694
0.075049
0.074727
0.074404
0.075694
0.075694
0.074082
0.074404
0.075049
0.074082
0.075049
0.074727
0.074404
0.075049
0.074404
0.074082
0.074727
0.074082
0.075049
0.074404
0.075049
0.074404
0.074082
0.073759
0.075049
0.075371
0.074727
0.075049
0.074727
0.075371
0.074727
0.074082
0.074404
0.074727
0.075694
0.074404
0.073759
0.074404
0.074404
0.074404
0.074727
0.073437
0.075049
0.075371
0.074404
0.074082
0.074727
0.074404
0.074404
0.074082
0.074404
0.075371
0.074404
0.074727
0.074082
0.074727
0.074404
0.073437
0.074727
0.074404
0.073759
0.074082
0.074082
0.074404
0.073759
0.074404
0.074404
0.075371
0.074727
0.074727
0.075049
0.075049
0.075049
0.073759
0.074404
0.076339
0.075049
0.073759
0.074727
0.074404
0.075694
0.074404
0.073759
0.074727
0.075371
0.074404
0.073437
0.074404
0.074727
0.074727
0.075049
0.074404
0.074404
0.075049
0.074727
0.074404
0.074727
0.075049
0.073437
0.074727
0.074082
0.074404
0.074727
0.074727
0.075371
0.075049
0.074082
0.074082
0.074404
0.075049
0.074727
0.073437
0.074082
0.074727
0.074727
0.074404
0.074404
0.075371
0.075371
0.073437
0.074082
0.074404
0.074404
0.074082
0.073759
0.074727
0.075694
0.074404
0.074404
0.074082
0.074727
0.075371
0.073759
0.074727
0.073759
0.075049
0.074082
0.075049
0.074404
0.075049
0.073437
0.074404
0.074404
0.075049
0.074082
0.075049
0.074082
0.074404
0.074082
0.074082
0.074727
0.074404
0.074082
0.074727
0.074404
0.074727
0.075371
0.074404
0.074727
0.075371
0.074404
0.073759
0.074082
0.074404
0.075371
0.074404
0.074082
0.074082
0.074404
0.074727
0.073759
0.073759
0.074082
0.074727
0.074082
0.074727
0.074082
0.074727
0.075049
0.074404
0.074727
0.074082
0.074404
0.074727
0.074727
0.074082
0.074727
0.074082
0.074404
0.073759
0.074082
0.074404
0.074727
0.075049
0.074727
0.074404
0.074404
0.075371
0.074404
0.074082
0.075049
0.074404
0.075371
0.073114
0.074082
0.074404
0.075049
0.073759
0.074082
0.074404
0.075371
0.073759
0.074082
0.074727
0.074727
0.075049
0.075049
0.073759
0.075694
0.074404
0.074404
0.075371
0.073759
0.074727
0.075049
0.073759
0.074404
0.074727
0.073759
0.074727
0.074727
0.075049
0.075049
0.076016
0.074404
0.074727
0.074727
0.074404
0.074404
0.075371
0.074727
0.073759
0.075371
0.074727
0.075049
0.074727
0.074404
0.074727
0.075371
0.074404
0.075371
0.075049
0.075049
0.074404
0.074082
0.073759
0.075371
0.074404
0.075049
0.075371
0.075049
0.075694
0.074404
0.075371
0.075371
0.074404
0.074727
0.075694
0.075049
0.075049
0.073759
0.074404
0.075049
0.075049
0.074082
0.075371
0.074727
0.074727
0.074082
0.074404
0.074727
0.074727
0.073759
0.074727
0.074082
0.075049
0.074404
0.073759
0.074727
0.075049
0.075049
0.074727
0.074727
0.075371
0.075371
0.074404
0.073759
0.074404
0.075049
0.074082
0.074082
0.074727
0.075371
0.073437
0.073759
0.075694
0.074404
0.075049
0.074404
0.074404
0.074727
0.074404
0.074082
0.074727
0.074727
0.074727
0.073759
0.075371
0.075371
0.075049
0.074404
0.075049
0.075371
0.075371
0.073759
0.074727
0.075049
0.075371
0.074082
0.075049
0.075371
0.075694
0.074082
0.073437
0.075049
0.075694
0.074727
0.074082
0.074727
0.075694
0.075049
0.074404
0.075371
0.074727
0.074727
0.074082
0.074727
0.074404
0.075371
0.075049
0.075371
0.075049
0.075049
0.074727
0.075049
0.075694
0.075694
0.074082
0.074727
0.075371
0.075694
0.075049
0.074404
0.075371
0.075694
0.074727
0.074404
0.075049
0.075049
0.075371
0.074727
0.074404
0.074727
0.075694
0.074727
0.073759
0.074404
0.075694
0.074727
0.074404
0.074727
0.075694
0.074727
0.074082
0.074727
0.075371
0.075049
0.074404
0.075049
0.074727
0.074404
0.074082
0.074727
0.074404
0.074404
0.073759
0.075049
0.074404
0.074082
0.073114
0.074727
0.074082
0.075371
0.073759
0.074082
0.074727
0.075371
0.074404
0.074727
0.074404
0.075049
0.074404
0.074727
0.073759
0.075371
0.075049
0.074404
0.073759
0.075371
0.074404
0.074082
0.074082
0.075049
0.075694
0.074082
0.074404
0.074727
0.074727
0.074727
0.074404
0.074727
0.075371
0.074404
0.074082
0.075371
0.074727
0.074727
0.073759
0.075694
0.075694
0.074727
0.073759
0.075371
0.074727
0.075049
0.073114
0.074727
0.074404
0.075049
0.074404
0.075049
0.075049
0.075371
0.074727
0.074082
0.073437
0.075049
0.075049
0.074404
0.074082
0.075049
0.075049
0.074727
0.074082
0.074727
0.074727
0.074404
0.074082
0.075694
0.076016
0.074727
0.074727
0.075049
0.074727
0.074727
0.073759
0.074404
0.075049
0.075371
0.074727
0.074727
0.074404
0.074727
0.075049
0.074404
0.074727
0.074082
0.074082
0.074727
0.074727
0.074404
0.074082
0.074082
0.074404
0.074727
0.073759
0.073759
0.074404
0.075371
0.074727
0.074082
0.074404
0.074727
0.074082
0.074404
0.074082
0.074404
0.075371
0.073759
0.074727
0.074404
0.074404
0.074082
0.073759
0.073759
0.074404
0.074082
0.074727
0.073759
0.074404
0.074082
0.074727
0.074082
0.074404
0.074082
0.073759
0.074404
0.074727
0.074727
0.075049
0.074082
0.074727
0.074404
0.074082
0.075049
0.074404
0.075049
0.074404
0.073759
0.074727
0.075371
0.074404
0.074404
0.074727
0.074727
0.075694
0.074404
0.074082
0.075049
0.074727
0.074082
0.074727
0.074404
0.074727
0.074727
0.074727
0.075049
0.074082
0.073759
0.074404
0.074404
0.075371
0.074082
0.074082
0.075049
0.074404
0.073759
0.074404
0.075049
0.076016
0.074082
0.075049
0.075694
0.075049
0.074727
0.073759
0.074404
0.074727
0.074404
0.073759
0.075049
0.075049
0.074727
0.074404
0.074404
0.074404
0.074727
0.074404
0.074404
0.073114
0.076016
0.074727
0.074404
0.074727
0.075049
0.074082
0.074082
0.075049
0.074404
0.074404
0.075049
0.075049
0.075694
0.074082
0.074082
0.074727
0.074404
0.074727
0.073437
0.074404
0.075049
0.075049
0.074082
0.074082
0.075049
0.074727
0.074082
0.073759
0.074727
0.074727
0.075049
0.074082
0.074404
0.074727
0.075694
0.074082
0.074727
0.074404
0.075049
0.075049
0.075049
0.074082
0.075371
0.074404
0.075371
0.075049
0.074404
0.074082
0.074082
0.075049
0.074727
0.074727
0.074082
0.075371
0.075049
0.074727
0.075049
0.074404
0.074404
0.075049
0.074404
0.074082
0.075049
0.075049
0.074404
0.074404
0.074404
0.075371
0.074404
0.073759
0.074082
0.075694
0.074404
0.074404
0.074404
0.074727
0.075049
0.074727
0.074727
0.073437
0.075371
0.074404
0.074082
0.075049
0.074404
0.074404
0.074727
0.074404
0.074082
0.074404
0.074404
0.074404
0.075049
0.074727
0.073759
0.074404
0.074727
0.075049
0.074082
0.074082
0.075049
0.075371
0.074404
0.073437
0.075049
0.075371
0.074727
0.074082
0.074404
0.075371
0.075694
0.074082
0.074082
0.075049
0.075049
0.074727
0.074404
0.073759
0.075049
0.074404
0.074082
0.074404
0.074727
0.074404
0.074404
0.075049
0.075049
0.074404
0.074727
0.075694
0.074404
0.074727
0.074082
0.074727
0.075049
0.075049
0.075049
0.075371
0.074082
0.075049
0.074082
0.074727
0.075049
0.076016
0.073437
0.074404
0.074404
0.075694
0.074727
0.073759
0.074082
0.075371
0.075049
0.074727
0.074082
0.074082
0.074727
0.074404
0.074082
0.074727
0.075049
0.075049
0.074404
0.074404
0.074727
0.074404
0.074727
0.075049
0.074727
0.075049
0.074082
0.075049
0.074082
0.074727
0.073759
0.075694
0.074404
0.074404
0.074082
0.074404
0.075049
0.074727
0.074082
0.073759
0.075049
0.075049
0.073759
0.073759
0.075049
0.075049
0.075049
0.073437
0.074082
0.075049
0.075049
0.074082
0.074727
0.074404
0.075049
0.074404
0.074082
0.074727
0.075371
0.074727
0.074082
0.074404
0.074727
0.074727
0.074082
0.074404
0.074082
0.074727
0.073759
0.073114
0.074404
0.075049
0.074082
0.074404
0.074404
0.075371
0.074404
0.074082
0.075049
0.075371
0.074404
0.074404
0.074727
0.075049
0.074727
0.073759
0.074727
0.074404
0.075694
0.073759
0.074404
0.075049
0.075371
0.074082
0.074727
0.075049
0.075371
0.075049
0.074404
0.074082
0.075694
0.074727
0.074727
0.074082
0.074727
0.075049
0.074727
0.074727
0.074082
0.075694
0.074404
0.073759
0.074727
0.074404
0.075049
0.074404
0.074727
0.075694
0.074404
0.073759
0.074727
0.074404
0.074404
0.074082
0.073759
0.075371
0.074404
0.074404
0.075049
0.075049
0.075049
0.073437
0.074404
0.074727
0.075049
0.074404
0.074082
0.074082
0.075049
0.074727
0.073759
0.073437
0.075049
0.074727
0.074727
0.074404
0.075049
0.075694
0.073759
0.074404
0.073759
0.075049
0.073759
0.074404
0.074727
0.078596
0.082143
0.088270
0.092785
0.096977
0.100202
0.103749
0.107296
0.111489
0.113746
0.115681
0.119550
0.122453
0.125355
0.126645
0.127612
0.130837
0.132772
0.134062
0.135352
0.137609
0.139544
0.140189
0.142124
0.141801
0.144703
0.145026
0.145671
0.146638
0.146961
0.148896
0.148251
0.149863
0.149863
0.152443
0.151798
0.152443
0.152765
0.153410
0.153088
0.154055
0.154700
0.155023
0.154700
0.155023
0.160827
0.156635
0.155990
0.155345
0.156312
0.156635
0.157280
0.156957
0.156635
0.156957
0.157925
0.157925
0.157280
0.156312
0.157925
0.157602
0.156312
0.156957
0.157280
0.157602
0.156635
0.156957
0.153410
0.159215
0.157602
0.156957
0.156957
0.157602
0.157280
0.157280
0.156635
0.157602
0.156957
0.153088
0.157925
0.158247
0.157280
0.157602
0.157280
0.158570
0.157925
0.157602
0.157602
0.158570
0.160182
0.157602
0.158570
0.157925
0.157602
0.157602
0.157925
0.157602
0.158247
0.157280
0.157280
0.159860
0.158247
0.156957
0.157280
0.156957
0.158247
0.158247
0.156635
0.158570
0.157280
0.157280
0.159215
0.157602
0.157602
0.159215
0.156635
0.157280
0.157925
0.157925
0.156957
0.157602
0.157602
0.160182
0.156957
0.157280
0.156957
0.158247
0.158247
0.156957
0.155990
0.157280
0.156635
0.156635
0.159537
0.157602
0.157602
0.156635
0.156957
0.156957
0.157602
0.157280
0.156957
0.157280
0.157280
0.158892
0.157280
0.156635
0.157925
0.157280
0.155667
0.157280
0.157280
0.155990
0.156312
0.156957
0.158247
0.157602
0.156312
0.156957
0.156957
0.157602
0.156957
0.156635
0.156957
0.157602
0.156957
0.157925
0.157602
0.156957
0.156635
0.156635
0.156957
0.157280
0.157602
0.156312
0.157602
0.156635
0.160505
0.156312
0.156635
0.157280
0.158570
0.156957
0.157925
0.156635
0.157280
0.156635
0.157602
0.159537
0.158570
0.157280
0.157602
0.156957
0.157925
0.157602
0.157602
0.156635
0.158247
0.157602
0.157602
0.156312
0.158247
0.157602
0.158570
0.157602
0.158247
0.158247
0.159215
0.157602
0.157925
0.158570
0.158892
0.157280
0.158570
0.157602
0.157925
0.158247
0.158247
0.157280
0.158570
0.157280
0.158570
0.156635
0.157925
0.158570
0.157602
0.157925
0.157602
0.157925
0.155990
0.157602
0.157925
0.158892
0.157925
0.157602
0.158247
0.158570
0.158570
0.157602
0.157602
0.158247
0.157925
0.157280
0.158892
0.158247
0.157602
0.157602
0.158570
0.158247
0.157925
0.157602
0.158892
0.157602
0.157925
0.158892
0.157602
0.158247
0.158892
0.157925
0.158570
0.158247
0.158892
0.158892
0.157925
0.157925
0.159215
0.159215
0.157925
0.157602
0.158892
0.159215
0.156635
0.158892
0.159215
0.159215
0.158247
0.158247
0.157925
0.159215
0.158247
0.158570
0.159537
0.158892
0.158570
0.158892
0.158247
0.158892
0.158570
0.157602
0.158247
0.158892
0.159215
0.158247
0.157925
0.158570
0.158570
0.158570
0.157602
0.158247
0.158892
0.158570
0.157280
0.158247
0.157925
0.159215
0.158570
0.158247
0.158892
0.159215
0.157602
0.157925
0.157602
0.158247
0.157925
0.157925
0.156635
0.157925
0.157602
0.157280
0.157602
0.157602
0.158570
0.157602
0.157602
0.157602
0.158247
0.157602
0.157280
0.157602
0.158570
0.157602
0.157602
0.158570
0.157925
0.157602
0.157280
0.157925
0.158570
0.158570
0.156957
0.158247
0.157280
0.158570
0.159215
0.157602
0.158247
0.159215
0.157925
0.157280
0.158247
0.158570
0.158570
0.157925
0.158570
0.158892
0.159215
0.158247
0.158570
0.158892
0.158892
0.158570
0.158892
0.158570
0.158570
0.158570
0.158570
0.158570
0.158570
0.158892
0.158570
0.158570
0.158570
0.158892
0.158892
0.158892
0.158247
0.159537
0.158570
0.157925
0.158892
0.158570
0.158892
0.157925
0.157925
0.158570
0.158892
0.157925
0.158892
0.158892
0.158892
0.157280
0.158247
0.158892
0.159215
0.157602
0.158570
0.157925
0.159215
0.158247
0.157602
0.159215
0.159537
0.158570
0.158247
0.157925
0.158892
0.158570
0.158247
0.158570
0.158570
0.158570
0.158570
0.158892
0.159537
0.158570
0.158247
0.158247
0.157602
0.158570
0.159537
0.158247
0.158247
0.158570
0.158892
0.158570
0.158570
0.158570
0.159537
0.157925
0.158570
0.158247
0.159215
0.158247
0.157925
0.158570
0.159860
0.157602
0.158892
0.159215
0.157925
0.158892
0.158570
0.157925
0.158892
0.157925
0.158570
0.158570
0.158892
0.158247
0.157280
0.157925
0.155023
0.158570
0.158247
0.158247
0.158570
0.157280
0.158247
0.157280
0.158570
0.157280
0.158570
0.160827
0.157602
0.157925
0.158892
0.157925
0.157280
0.157602
0.157925
0.156957
0.157925
0.157602
0.161150
0.156957
0.157280
0.157280
0.158247
0.157280
0.157280
0.157602
0.159215
0.157602
0.157602
0.156635
0.156312
0.159215
0.157280
0.157280
0.157602
0.158247
0.157925
0.157280
0.157925
0.158570
0.157602
0.157925
0.158892
0.158570
0.157925
0.157925
0.157602
0.158247
0.157280
0.157602
0.155345
0.157925
0.158247
0.157602
0.157280
0.157925
0.158892
0.158247
0.157280
0.157280
0.158570
0.161150
0.157602
0.157925
0.158247
0.157925
0.158247
0.157925
0.159215
0.158247
0.157602
0.157925
0.159215
0.158247
0.157280
0.158570
0.158570
0.158892
0.157602
0.158247
0.158892
0.159537
0.158570
0.158570
0.158570
0.159537
0.157925
0.157925
0.157925
0.158570
0.158570
0.158247
0.157925
0.159215
0.157602
0.157280
0.158247
0.158247
0.158247
0.157602
0.158247
0.159215
0.158247
0.157925
0.156957
0.158247
0.158892
0.157925
0.157602
0.157925
0.157602
0.158892
0.157280
0.157602
0.157280
0.158247
0.156635
0.158570
0.158247
0.158247
0.158247
0.157925
0.157602
0.158570
0.156957
0.159215
0.158247
0.159215
0.158247
0.157925
0.158247
0.158892
0.158892
0.158570
0.158247
0.158570
0.158892
0.157602
0.158570
0.158892
0.158892
0.157925
0.158247
0.158247
0.158570
0.157602
0.158570
0.158570
0.158892
0.157925
0.157925
0.158247
0.157925
0.158892
0.157925
0.157925
0.159215
0.158892
0.157925
0.158247
0.158247
0.159215
0.158570
0.158247
0.158247
0.158570
0.158570
0.157602
0.157280
0.158247
0.157925
0.157280
0.156312
0.157602
0.158570
0.157280
0.158247
0.157602
0.158570
0.156635
0.157280
0.157602
0.157602
0.157280
0.157280
0.156957
0.158247
0.157280
0.156957
0.157925
0.157280
0.157925
0.157280
0.156635
0.157602
0.157280
0.157602
0.157280
0.157602
0.157280
0.156957
0.157602
0.157602
0.157602
0.157602
0.157925
0.157925
0.157602
0.157280
0.156957
0.158247
0.158570
0.157280
0.157280
0.157602
0.158247
0.159537
0.157602
0.157602
0.157925
0.158570
0.157925
0.157925
0.158247
0.158892
0.158247
0.157280
0.157925
0.158892
0.158570
0.157602
0.158247
0.159215
0.157925
0.157280
0.157602
0.158247
0.159537
0.157925
0.157925
0.158247
0.158892
0.158892
0.158570
0.158892
0.157925
0.158892
0.157602
0.157925
0.158570
0.158570
0.158570
0.157925
0.157925
0.158247
0.158247
0.158570
0.157602
0.157602
0.158247
0.159215
0.158570
0.158892
0.158247
0.157602
0.158570
0.158892
0.158570
0.157925
0.162439
0.159215
0.158570
0.157925
0.158570
0.158570
0.158892
0.157602
0.158570
0.158892
0.157925
0.160827
0.158892
0.158247
0.158892
0.157602
0.157925
0.157925
0.158570
0.158247
0.157925
0.158247
0.161794
0.158570
0.158570
0.158247
0.158570
0.159537
0.157925
0.157602
0.158570
0.159215
0.156957
0.157925
0.158892
0.159860
0.158570
0.158892
0.159215
0.159215
0.158892
0.158570
0.160182
0.156635
0.158892
0.158892
0.159537
0.160827
0.159215
0.158570
0.159215
0.158892
0.159537
0.158570
0.161150
0.159215
0.159537
0.159215
0.159215
0.159215
0.159537
0.158570
0.158892
0.159215
0.158892
0.161472
0.158570
0.158892
0.158892
0.159215
0.157280
0.157925
0.159215
0.158247
0.158247
0.158247
0.158892
0.158892
0.158570
0.157602
0.158570
0.157925
0.159215
0.157602
0.157925
0.157602
0.158892
0.158247
0.157280
0.158570
0.159215
0.157925
0.158570
0.157602
0.158570
0.158892
0.157602
0.158570
0.157925
0.158570
0.157602
0.158247
0.158892
0.158892
0.157280
0.157925
0.158247
0.158570
0.157925
0.158247
0.158892
0.159215
0.158247
0.158247
0.158247
0.158892
0.158247
0.157925
0.159537
0.159215
0.157602
0.158570
0.158892
0.158892
0.158570
0.157925
0.157925
0.159537
0.159215
0.157925
0.158570
0.159537
0.159860
0.158247
0.158892
0.158892
0.158892
0.159537
0.158247
0.158892
0.159537
0.158892
0.158892
0.159215
0.159537
0.159860
0.158892
0.158892
0.159215
0.160182
0.158892
0.158892
0.159860
0.160182
0.159537
0.158247
0.158570
0.159537
0.159215
0.158570
0.157925
0.159215
0.159537
0.157925
0.157925
0.159537
0.159215
0.159215
0.158570
0.157925
0.159537
0.158892
0.158570
0.158892
0.158247
0.158247
0.157925
0.158892
0.158892
0.158247
0.157602
0.158570
0.159215
0.157925
0.157280
0.157925
0.158247
0.159537
0.157925
0.157280
0.158892
0.159215
0.157602
0.157925
0.158892
0.158892
0.156635
0.158570
0.158892
0.159537
0.159215
0.158570
0.158892
0.158892
0.159215
0.158570
0.157925
0.155345
0.159215
0.158247
0.158892
0.158247
0.160182
0.159215
0.158570
0.158570
0.158892
0.159215
0.162117
0.158570
0.159537
0.159215
0.160182
0.158570
0.158892
0.159215
0.159215
0.159537
0.159215
0.162439
0.158247
0.158570
0.159537
0.158892
0.158570
0.158247
0.158892
0.159860
0.158570
0.156635
0.158892
0.158247
0.158570
0.157925
0.158570
0.158570
0.159215
0.158570
0.157925
0.158570
0.154378
0.157602
0.158892
0.158247
0.159215
0.158247
0.157925
0.158570
0.158892
0.158570
0.156957
0.159860
0.159537
0.158247
0.157925
0.157280
0.158247
0.160182
0.158247
0.158247
0.158247
0.158892
0.159860
0.157925
0.157925
0.158892
0.158570
0.159215
0.158570
0.158570
0.159215
0.157925
0.158892
0.158892
0.159215
0.158570
0.158892
0.159215
0.159537
0.158570
0.158570
0.159537
0.159860
0.158570
0.159215
0.158892
0.158570
0.159215
0.159537
0.159537
0.159537
0.159537
0.158570
0.159215
0.158892
0.159215
0.158247
0.159537
0.159215
0.159215
0.158892
0.157602
0.160182
0.159860
0.158570
0.159537
0.158892
0.160505
0.159215
0.158570
0.159860
0.159860
0.159537
0.159860
0.159537
0.159860
0.158892
0.159215
0.159537
0.159215
0.159860
0.159537
0.158892
0.158892
0.159215
0.158247
0.158570
0.159215
0.158892
0.159860
0.158570
0.158570
0.159537
0.158892
0.158247
0.158570
0.158892
0.160182
0.157925
0.158570
0.159215
0.159537
0.158570
0.158892
0.158892
0.160505
0.158247
0.159537
0.159537
0.158892
0.159215
0.158892
0.160505
0.159215
0.158892
0.158570
0.158892
0.160182
0.159215
0.158892
0.158247
0.158570
0.159860
0.158892
0.159537
0.159215
0.159215
0.158892
0.158247
0.159215
0.158892
0.158570
0.159537
0.159537
0.159860
0.159215
0.158247
0.158892
0.158570
0.159537
0.158892
0.158570
0.159215
0.160182
0.158892
0.159215
0.159860
0.160182
0.158570
0.158247
0.159215
0.160182
0.157602
0.156635
0.159860
0.159215
0.158570
0.158247
0.158892
0.158892
0.158892
0.158892
0.159215
0.158247
0.158892
0.158892
0.158247
0.158892
0.158892
0.157602
0.158892
0.158247
0.158892
0.158570
0.157925
0.162117
0.159215
0.157925
0.158247
0.158247
0.157602
0.158892
0.158247
0.157602
0.158892
0.159215
0.160827
0.158570
0.158892
0.158892
0.158570
0.158892
0.159215
0.159860
0.158570
0.158570
0.158570
0.161150
0.158892
0.158570
0.158892
0.158247
0.159215
0.158570
0.159215
0.158570
0.160182
0.155023
0.158892
0.158570
0.159860
0.158247
0.158892
0.159537
0.160505
0.158892
0.158247
0.159537
0.158892
0.158892
0.158892
0.159537
0.160182
0.159215
0.158247
0.158892
0.160505
0.158892
0.158570
0.161150
0.159537
0.159215
0.159537
0.159537
0.159215
0.159860
0.160182
0.158892
0.159537
0.159215
0.159860
0.160505
0.158247
0.159537
0.160182
0.157925
0.159215
0.159215
0.159215
0.158570
0.158892
0.158892
0.160182
0.158247
0.158892
0.159860
0.159215
0.159215
0.159215
0.159215
0.158892
0.158892
0.159215
0.160182
0.157925
0.158892
0.158570
0.158892
0.158247
0.158892
0.158570
0.158570
0.158570
0.159537
0.159860
0.158570
0.158892
0.159860
0.159537
0.158892
0.158247
0.159537
0.159537
0.159215
0.158892
0.160182
0.159537
0.159537
0.158892
0.159215
0.160182
0.159537
0.157925
0.159860
0.159537
0.159537
0.159537
0.160505
0.158892
0.159215
0.158892
0.159537
0.159537
0.159860
0.158892
0.159537
0.159537
0.159215
0.158570
0.159537
0.158892
0.159860
0.159860
0.159537
0.158892
0.160505
0.159215
0.158570
0.159215
0.159860
0.159537
0.158892
0.158892
0.159860
0.159215
0.158892
0.159537
0.159215
0.158892
0.159215
0.158892
0.159537
0.159537
0.158247
0.158892
0.159215
0.159860
0.159860
0.155023
0.159215
0.159215
0.159215
0.159215
0.158247
0.159537
0.159537
0.157280
0.158892
0.158892
0.155023
0.159215
0.158570
0.158570
0.160182
0.158892
0.158892
0.159537
0.159537
0.158892
0.157602
0.162439
0.159537
0.158892
0.158892
0.158892
0.158570
0.159537
0.158892
0.158247
0.159537
0.158570
0.156957
0.159537
0.158570
0.159860
0.159537
0.158570
0.158247
0.159215
0.158892
0.159537
0.159215
0.160505
0.159215
0.158892
0.158570
0.160505
0.159537
0.159537
0.158892
0.159537
0.159537
0.160505
0.158892
0.159537
0.159860
0.158570
0.158570
0.159537
0.160505
0.158570
0.158892
0.159215
0.159537
0.159537
0.159215
0.159537
0.159860
0.159215
0.157925
0.159537
0.159537
0.159860
0.159215
0.159537
0.158892
0.159860
0.158247
0.159215
0.159215
0.159537
0.158892
0.158892
0.159537
0.160182
0.159537
0.159537
0.158892
0.159860
0.159215
0.158247
0.159537
0.159537
0.159860
0.158570
0.158570
0.159215
0.160505
0.159860
0.159860
0.158892
0.159860
0.159537
0.159215
0.159215
0.160827
0.159537
0.159215
0.158892
0.158892
0.159860
0.159537
0.159537
0.159860
0.159215
0.159215
0.159215
0.159537
0.160182
0.159860
0.159537
0.159860
0.159537
0.159537
0.159537
0.159537
0.160182
0.159860
0.158570
0.159860
0.160505
0.159215
0.159537
0.159537
0.159860
0.159537
0.159537
0.159860
0.159537
0.159537
0.159860
0.158892
0.159215
0.159860
0.158570
0.159537
0.159215
0.159860
0.158892
0.158570
0.157925
0.159860
0.158892
0.159215
0.158892
0.158570
0.159537
0.158247
0.158247
0.159215
0.159215
0.155667
0.157602
0.158892
0.159537
0.158247
0.158892
0.158892
0.159215
0.158247
0.155990
0.159860
0.162117
0.158892
0.158570
0.159860
0.158892
0.158892
0.158570
0.158892
0.159537
0.159215
0.158570
0.158892
0.159537
0.159860
0.157925
0.159215
0.158570
0.159537
0.158570
0.158892
0.159215
0.159215
0.158892
0.159215
0.159860
0.159860
0.159215
0.159537
0.159537
0.159537
0.159537
0.159215
0.162439
0.159537
0.159215
0.159860
0.159215
0.159537
0.160827
0.159537
0.159537
0.160505
0.160182
0.159215
0.159860
0.160182
0.161150
0.159215
0.159537
0.159537
0.160827
0.159537
0.158892
0.159537
0.160182
0.160182
0.159215
0.159860
0.160182
0.159860
0.159537
0.159215
0.160182
0.160182
0.159537
0.160182
0.160505
0.159860
0.159215
0.159537
0.160182
0.159215
0.159860
0.159537
0.159215
0.159537
0.159537
0.159215
0.159860
0.159860
0.159860
0.158892
0.158892
0.159537
0.160182
0.158570
0.159215
0.158892
0.160505
0.159860
0.159537
0.160182
0.160505
0.159215
0.159215
0.159215
0.159860
0.160182
0.160182
0.159860
0.160182
0.160182
0.159215
0.159215
0.160505
0.159860
0.159537
0.159215
0.159537
0.160182
0.159860
0.159860
0.159537
0.159860
0.159215
0.158892
0.160505
0.159860
0.160505
0.158892
0.159860
0.160827
0.160505
0.158892
0.159215
0.159215
0.159860
0.159537
0.158892
0.160505
0.158892
0.159215
0.160182
0.159537
0.160182
0.159860
0.158892
0.159860
0.159537
0.160505
0.158570
0.154055
0.159860
0.160827
0.159537
0.159860
0.158892
0.158892
0.159215
0.158892
0.159215
0.160827
0.164052
0.158247
0.158892
0.159215
0.159860
0.158892
0.159215
0.159860
0.158570
0.158247
0.157925
0.162762
0.159537
0.158892
0.159537
0.159537
0.159537
0.158570
0.157925
0.159215
0.159537
0.158570
0.158892
0.159860
0.159215
0.159215
0.159860
0.159215
0.160182
0.160182
0.159537
0.159215
0.155345
0.160182
0.158892
0.159860
0.159860
0.160505
0.159537
0.159215
0.158892
0.160182
0.159537
0.161472
0.159860
0.159860
0.159860
0.159537
0.158570
0.160182
0.160505
0.159860
0.160182
0.160505
0.160505
0.159537
0.160182
0.160182
0.160505
0.159860
0.159537
0.161472
0.159860
0.159537
0.159860
0.160827
0.160505
0.160505
0.160827
0.160505
0.160182
0.159860
0.160827
0.160182
0.161150
0.160505
0.159860
0.159537
0.159860
0.160505
0.160505
0.159860
0.160505
0.160505
0.159215
0.159215
0.160505
0.160505
0.160505
0.159537
0.160182
0.161472
0.159860
0.159860
0.160182
0.160182
0.159537
0.159860
0.159537
0.159537
0.159215
0.158892
0.159860
0.159215
0.159860
0.159215
0.159537
0.159215
0.160182
0.159537
0.160827
0.159860
0.160505
0.159860
0.159215
0.159537
0.160182
0.159537
0.159860
0.160182
0.160505
0.160182
0.158892
0.159860
0.160182
0.160182
0.159860
0.159860
0.159860
0.159860
0.160182
0.159537
0.159537
0.160827
0.159215
0.159537
0.159860
0.159860
0.160505
0.158892
0.159537
0.160827
0.160505
0.159537
0.159537
0.160182
0.160182
0.159537
0.159860
0.161150
0.160505
0.159537
0.160505
0.159537
0.160182
0.158892
0.159860
0.159860
0.159537
0.159537
0.159537
0.159860
0.159537
0.158247
0.158892
0.159537
0.159537
0.159860
0.159537
0.158892
0.159215
0.159860
0.158892
0.158892
0.157925
0.159215
0.159215
0.158892
0.160182
0.158570
0.158570
0.158570
0.159537
0.159537
0.159860
0.161794
0.158892
0.158892
0.159860
0.159537
0.160182
0.159537
0.160182
0.159537
0.157925
0.158892
0.162762
0.159215
0.158570
0.159215
0.159215
0.160182
0.158570
0.158570
0.159860
0.159860
0.157925
0.158570
0.159537
0.159860
0.159215
0.159215
0.159860
0.160182
0.159537
0.158892
0.158892
0.164052
0.159860
0.159537
0.159537
0.160182
0.159860
0.160505
0.159537
0.160182
0.160505
0.159860
0.162117
0.160505
0.160182
0.160505
0.160182
0.160505
0.160182
0.160182
0.160505
0.160827
0.159537
0.160182
0.160182
0.160827
0.160505
0.160505
0.159860
0.160505
0.160505
0.160182
0.159537
0.159537
0.159860
0.160182
0.159215
0.159860
0.159537
0.160182
0.160182
0.158892
0.159537
0.160505
0.159215
0.158892
0.159537
0.159860
0.160505
0.159537
0.158892
0.160182
0.159860
0.158892
0.158892
0.158892
0.160182
0.159860
0.158892
0.159860
0.159860
0.159860
0.158570
0.158892
0.159537
0.159860
0.159537
0.158892
0.160505
0.159860
0.159860
0.159537
0.159537
0.159860
0.159215
0.159215
0.160182
0.159537
0.159215
0.159860
0.159215
0.159860
0.159215
0.159537
0.159860
0.159537
0.159537
0.159215
0.159537
0.160505
0.161794
0.158570
0.160182
0.160182
0.160505
0.159537
0.159860
0.160182
0.160827
0.159215
0.158892
0.160827
0.160827
0.159537
0.159215
0.158247
0.159537
0.159537
0.158892
0.158892
0.158892
0.159537
0.159215
0.158570
0.159215
0.159537
0.159215
0.158892
0.158892
0.159215
0.159537
0.159215
0.159860
0.160182
0.158892
0.157925
0.159537
0.158570
0.159215
0.158247
0.158247
0.159215
0.155667
0.157602
0.159215
0.158892
0.159215
0.159215
0.159215
0.158892
0.160505
0.158247
0.159215
0.162762
0.160182
0.159860
0.159215
0.159215
0.160505
0.160182
0.158570
0.158892
0.159537
0.159860
0.162439
0.159215
0.160182
0.159860
0.159860
0.159537
0.159215
0.159537
0.159860
0.159215
0.156312
0.159537
0.159215
0.159860
0.159537
0.159537
0.159215
0.158892
0.160182
0.159860
0.159860
0.158570
0.159860
0.160505
0.161150
0.159215
0.159215
0.159215
0.160505
0.159860
0.159215
0.160505
0.162439
0.159537
0.159537
0.160505
0.160827
0.160182
0.159860
0.159860
0.160505
0.159860
0.158892
0.160182
0.159537
0.160182
0.159860
0.160182
0.160182
0.160182
0.159215
0.160182
0.159215
0.159537
0.159860
0.159537
0.159860
0.160182
0.159537
0.160505
0.159215
0.159860
0.159860
0.159537
0.159537
0.160827
0.159860
0.159537
0.160505
0.160505
0.161150
0.158570
0.159860
0.160505
0.160505
0.160182
0.159537
0.160182
0.161150
0.160182
0.159537
0.160827
0.160182
0.160505
0.159215
0.159537
0.160182
0.160505
0.159215
0.159860
0.159860
0.160505
0.159215
0.159215
0.159537
0.160505
0.160182
0.159537
0.159537
0.161150
0.160505
0.160182
0.160182
0.160505
0.159860
0.159537
0.159537
0.160182
0.160505
0.159537
0.159537
0.160182
0.159860
0.159215
0.160182
0.159537
0.159860
0.158570
0.158570
0.160827
0.160827
0.158892
0.159537
0.159215
0.160182
0.159537
0.158570
0.159860
0.159537
0.158892
0.159215
0.159537
0.159537
0.160827
0.159537
0.159215
0.158570
0.159537
0.159537
0.158892
0.159215
0.158892
0.158892
0.159537
0.159860
0.158570
0.158570
0.158247
0.158892
0.159215
0.159537
0.158570
0.155345
0.159215
0.159537
0.158570
0.159860
0.159860
0.159215
0.158892
0.159537
0.159537
0.159215
0.162762
0.159215
0.159537
0.160505
0.158892
0.159537
0.159215
0.160827
0.159537
0.158892
0.159537
0.161472
0.160505
0.159860
0.159537
0.160182
0.160182
0.159537
0.159537
0.160182
0.160505
0.156312
0.159215
0.160182
0.160182
0.159537
0.159537
0.159860
0.161472
0.160182
0.159537
0.159860
0.163084
0.160182
0.160505
0.160505
0.160827
0.160182
0.159537
0.160505
0.159860
0.159860
0.160505
0.161794
0.159537
0.160182
0.159860
0.160182
0.160182
0.160505
0.160505
0.160182
0.160182
0.160827
0.159537
0.160182
0.160505
0.161472
0.160505
0.160505
0.160182
0.160505
0.159860
0.159860
0.159860
0.159860
0.160827
0.159860
0.159860
0.159215
0.161150
0.160182
0.159537
0.160182
0.160182
0.159860
0.160182
0.159537
0.160182
0.160505
0.160182
0.160827
0.161150
0.159860
0.160182
0.160505
0.160505
0.160182
0.160505
0.160827
0.161150
0.161150
0.160505
0.160505
0.161150
0.161472
0.160182
0.160505
0.161150
0.161472
0.159860
0.159215
0.160827
0.160827
0.160505
0.159860
0.160505
0.160505
0.161150
0.160827
0.159860
0.160182
0.161150
0.160182
0.160505
0.160182
0.161472
0.160505
0.160505
0.159860
0.161472
0.160182
0.159860
0.159860
0.160505
0.160182
0.160182
0.160182
0.159860
0.159860
0.159860
0.159537
0.159537
0.159537
0.159537
0.159215
0.160182
0.159860
0.158570
0.158892
0.159860
0.159860
0.158570
0.158570
0.160182
0.159537
0.158247
0.158570
0.159537
0.158892
0.159537
0.158247
0.160505
0.159537
0.159860
0.158247
0.158892
0.159537
0.159860
0.158892
0.159215
0.159215
0.160182
0.160182
0.158892
0.159215
0.159537
0.160827
0.159537
0.159537
0.158892
0.161150
0.159537
0.160827
0.162762
0.160827
0.159860
0.159537
0.159537
0.161150
0.160505
0.160827
0.160827
0.160505
0.160505
0.160182
0.160827
0.160505
0.159537
0.159537
0.160505
0.160182
0.160182
0.159537
0.160182
0.160505
0.160505
0.159860
0.160505
0.161150
0.160827
0.160182
0.159537
0.161472
0.160505
0.161150
0.163729
0.161150
0.160827
0.161472
0.159537
0.159860
0.160827
0.160827
0.159860
0.159860
0.160182
0.161794
0.160182
0.160182
0.160505
0.160827
0.159860
0.159860
0.160505
0.160827
0.160182
0.160505
0.160182
0.160827
0.160827
0.160182
0.161472
0.159860
0.160505
0.159860
0.160827
0.160505
0.160182
0.160827
0.159860
0.159537
0.161150
0.160505
0.159860
0.160182
0.160505
0.160182
0.159860
0.161150
0.161150
0.160505
0.160827
0.160505
0.161150
0.161150
0.159537
0.160505
0.160505
0.160827
0.160505
0.160182
0.161472
0.161472
0.159860
0.159537
0.161150
0.161472
0.160827
0.159860
0.160182
0.160827
0.161472
0.159860
0.161150
0.160827
0.161794
0.160182
0.159860
0.159860
0.160827
0.160182
0.160827
0.160505
0.161472
0.160182
0.160182
0.160182
0.160505
0.160182
0.160182
0.160182
0.160505
0.160827
0.159537
0.160182
0.160827
0.159860
0.159537
0.159860
0.160182
0.160827
0.159860
0.160182
0.160827
0.161150
0.159537
0.160182
0.160505
0.160182
0.161472
0.158892
0.159215
0.160182
0.160505
0.158892
0.159537
0.159537
0.160182
0.159215
0.158892
0.159860
0.160505
0.159537
0.159215
0.159215
0.160182
0.159537
0.159215
0.159860
0.159215
0.160182
0.160827
0.159860
0.160182
0.160182
0.159215
0.156312
0.160505
0.160827
0.160827
0.159860
0.160182
0.160505
0.160182
0.159537
0.160505
0.160505
0.164052
0.159215
0.160505
0.160505
0.160182
0.159537
0.159860
0.159860
0.161150
0.158570
0.158892
0.160182
0.160182
0.160505
0.160505
0.160182
0.160827
0.161150
0.159860
0.160182
0.161472
0.159215
0.160505
0.160505
0.160505
0.161794
0.160827
0.160827
0.160827
0.161150
0.160827
0.160182
0.161794
0.161794
0.161472
0.160505
0.160827
0.160505
0.160827
0.160827
0.160505
0.160505
0.160505
0.162762
0.161150
0.160505
0.161150
0.160827
0.160182
0.160505
0.161150
0.159537
0.160182
0.160505
0.160827
0.160827
0.159537
0.160182
0.161150
0.160505
0.159215
0.160827
0.160182
0.160827
0.159537
0.159537
0.160182
0.160827
0.159860
0.160182
0.160505
0.161472
0.160182
0.160182
0.160182
0.161150
0.160505
0.160182
0.160505
0.160505
0.160827
0.160182
0.160182
0.159860
0.160505
0.159860
0.159537
0.159860
0.160827
0.159860
0.159860
0.160505
0.160182
0.160505
0.159860
0.159215
0.160827
0.160827
0.160182
0.161150
0.160505
0.160827
0.160505
0.159860
0.160505
0.160182
0.160505
0.159537
0.159860
0.161150
0.159860
0.159537
0.160505
0.159537
0.159860
0.159860
0.160505
0.159860
0.160505
0.159215
0.160182
0.160505
0.160505
0.160182
0.159215
0.159860
0.160505
0.159537
0.160182
0.160182
0.160827
0.159860
0.160182
0.158892
0.160827
0.159860
0.159537
0.159860
0.160505
0.160182
0.160827
0.159860
0.160182
0.160505
0.160182
0.160182
0.159860
0.161150
0.160182
0.159860
0.159537
0.160827
0.159537
0.159537
0.159215
0.159215
0.160827
0.159537
0.159860
0.159215
0.160182
0.159215
0.160827
0.157280
0.161150
0.160182
0.160182
0.161150
0.160827
0.159860
0.160182
0.160827
0.161472
0.159860
0.164052
0.160827
0.160505
0.160827
0.159860
0.160505
0.159860
0.160827
0.159860
0.160182
0.159860
0.163729
0.160827
0.159537
0.160505
0.161472
0.159860
0.159860
0.160827
0.161150
0.161472
0.157925
0.160505
0.161150
0.161472
0.161150
0.160182
0.161472
0.161472
0.160182
0.160827
0.160827
0.165664
0.161150
0.160827
0.160505
0.160827
0.160827
0.160182
0.160505
0.160827
0.160505
0.159537
0.161794
0.160505
0.160505
0.159860
0.160827
0.159537
0.159860
0.160827
0.159860
0.160182
0.161472
0.159860
0.159860
0.161150
0.160827
0.160505
0.160827
0.160182
0.161794
0.160182
0.160505
0.160827
0.161150
0.161472
0.159860
0.160827
0.160505
0.160182
0.160182
0.160182
0.160827
0.161150
0.160827
0.159860
0.160505
0.161150
0.161150
0.161150
0.160505
0.160827
0.161150
0.159860
0.161150
0.160505
0.161150
0.160827
0.161150
0.160505
0.161472
0.160827
0.160505
0.160505
0.161472
0.160505
0.160505
0.160827
0.161472
0.160827
0.160182
0.159860
0.159860
0.160182
0.159860
0.160182
0.160505
0.159537
0.158892
0.160827
0.160505
0.160827
0.160827
0.159215
0.160182
0.160505
0.159860
0.159860
0.160182
0.160827
0.161150
0.159537
0.159860
0.160182
0.160827
0.158892
0.159537
0.160182
0.159860
0.158892
0.159860
0.160182
0.160182
0.160182
0.160182
0.160505
0.160505
0.160182
0.160505
0.160505
0.155345
0.160505
0.159860
0.160505
0.160827
0.159860
0.159537
0.161150
0.160505
0.159860
0.160182
0.162762
0.160505
0.160827
0.160505
0.161150
0.160182
0.160505
0.161150
0.160827
0.161150
0.161150
0.162762
0.160182
0.160505
0.161794
0.161150
0.159860
0.160182
0.161794
0.161150
0.160827
0.159537
0.160182
0.161472
0.160505
0.159860
0.161794
0.161472
0.160505
0.160827
0.160505
0.160827
0.163729
0.161150
0.160827
0.160182
0.161150
0.160505
0.160505
0.160505
0.160505
0.160505
0.161150
0.160505
0.161472
0.160505
0.160505
0.160827
0.161472
0.159537
0.160182
0.160505
0.160505
0.160182
0.160182
0.160827
0.161794
0.160182
0.159860
0.160505
0.161150
0.160827
0.159537
0.160827
0.161794
0.160827
0.159537
0.160182
0.162439
0.160505
0.159860
0.160182
0.161150
0.161150
0.160182
0.160505
0.161150
0.162117
0.160827
0.160827
0.161150
0.161472
0.161150
0.161794
0.160827
0.160827
0.161150
0.160182
0.160827
0.160827
0.161150
0.161472
0.160827
0.160827
0.161794
0.160827
0.160827
0.161150
0.161794
0.161472
0.160827
0.161794
0.160827
0.161150
0.160827
0.160827
0.161794
0.161150
0.160182
0.161150
0.161794
0.160827
0.159537
0.160827
0.160182
0.161150
0.159537
0.160182
0.160827
0.160182
0.159537
0.160182
0.159860
0.161150
0.159537
0.159860
0.160182
0.160182
0.160182
0.159860
0.160182
0.159860
0.160182
0.159860
0.159860
0.160505
0.159860
0.160505
0.159860
0.160182
0.160505
0.156312
0.158892
0.159215
0.159537
0.159860
0.159215
0.159537
0.159860
0.160505
0.159860
0.160505
0.163407
0.160827
0.160182
0.160505
0.160182
0.160505
0.159537
0.160505
0.160182
0.161150
0.159860
0.159860
0.160182
0.161472
0.160182
0.160505
0.160505
0.161150
0.159537
0.159537
0.160505
0.160182
0.160505
0.160182
0.160505
0.160505
0.160827
0.161150
0.160505
0.160505
0.161472
0.160827
0.165987
0.161150
0.161794
0.161150
0.160505
0.161150
0.161472
0.161472
0.160827
0.161150
0.160827
0.163729
0.160505
0.161150
0.161472
0.161472
0.160182
0.160827
0.160827
0.161472
0.160182
0.161150
0.162117
0.160827
0.160827
0.160827
0.161794
0.161150
0.160505
0.160182
0.161150
0.161150
0.160827
0.160505
0.160827
0.160827
0.161472
0.159860
0.161150
0.160505
0.161472
0.160827
0.160182
0.160505
0.161794
0.160827
0.159860
0.160827
0.161150
0.160182
0.160505
0.160827
0.161150
0.160827
0.160182
0.160827
0.160827
0.160827
0.160827
0.160505
0.160827
0.160827
0.161150
0.161150
0.160827
0.161150
0.161794
0.161150
0.161472
0.161472
0.160827
0.161150
0.161150
0.161150
0.161472
0.160505
0.161472
0.161472
0.161150
0.160182
0.161472
0.161150
0.161794
0.160505
0.160827
0.161150
0.161472
0.160182
0.159860
0.160827
0.161472
0.160827
0.160182
0.160827
0.160827
0.160827
0.159860
0.158892
0.160827
0.160827
0.159860
0.160827
0.160182
0.160182
0.160505
0.160505
0.159537
0.160827
0.160182
0.155667
0.160182
0.160505
0.159537
0.160182
0.159860
0.159860
0.159537
0.160182
0.159215
0.159860
0.160827
0.159537
0.160182
0.160182
0.159537
0.159860
0.160182
0.159537
0.159537
0.158892
0.159537
0.163407
0.160182
0.159215
0.160827
0.160182
0.161150
0.159860
0.159537
0.161150
0.159860
0.156312
0.159215
0.160182
0.160827
0.160827
0.159537
0.160505
0.160505
0.161150
0.159860
0.160182
0.165342
0.161472
0.160182
0.160827
0.160182
0.161472
0.161150
0.160827
0.160505
0.161472
0.160182
0.161794
0.159860
0.161150
0.161150
0.160827
0.161472
0.161150
0.161472
0.161150
0.161794
0.161472
0.160827
0.160505
0.161150
0.161150
0.161150
0.160505
0.161794
0.161150
0.161150
0.160505
0.160827
0.161794
0.161472
0.160827
0.160505
0.160827
0.161794
0.161150
0.160505
0.160827
0.161150
0.160827
0.160505
0.160182
0.161150
0.161794
0.160505
0.159860
0.161150
0.161472
0.160505
0.159537
0.160505
0.160827
0.160827
0.160827
0.160505
0.160505
0.159860
0.159860
0.161150
0.160505
0.160505
0.160505
0.160827
0.160505
0.160827
0.159215
0.161150
0.161150
0.159860
0.160182
0.161150
0.160505
0.160827
0.159860
0.160505
0.160827
0.161150
0.159860
0.160827
0.161150
0.161472
0.159860
0.160182
0.161472
0.161472
0.160505
0.160505
0.160827
0.161472
0.160505
0.160505
0.161150
0.161472
0.161150
0.157602
0.160505
0.161150
0.161150
0.160827
0.160505
0.160505
0.161150
0.160827
0.160827
0.160182
0.160182
0.160505
0.160505
0.160182
0.160827
0.161150
0.159537
0.160827
0.160827
0.159860
0.159537
0.162439
0.160182
0.160505
0.158892
0.160827
0.160505
0.160505
0.159215
0.159860
0.159860
0.157602
0.160182
0.159537
0.160182
0.160505
0.159860
0.159215
0.159537
0.159537
0.159860
0.159215
0.159215
0.159860
0.159537
0.159860
0.159215
0.160505
0.160182
0.159215
0.159537
0.159537
0.160505
0.162439
0.159860
0.160182
0.160505
0.159537
0.160505
0.160505
0.161472
0.159215
0.159537
0.159860
0.161472
0.160182
0.160505
0.160827
0.160182
0.160827
0.160505
0.160827
0.160505
0.159537
0.159537
0.160182
0.161472
0.160505
0.160182
0.160182
0.161150
0.160182
0.160505
0.160827
0.160182
0.161472
0.160827
0.160182
0.161472
0.160827
0.161150
0.160505
0.161150
0.160182
0.161794
0.160505
0.160505
0.161150
0.162117
0.161150
0.161150
0.160827
0.162117
0.160182
0.159860
0.160827
0.161472
0.161150
0.160182
0.160182
0.161472
0.160827
0.161150
0.160505
0.160505
0.161150
0.160182
0.160505
0.160505
0.160182
0.160827
0.160505
0.159860
0.160182
0.160182
0.158570
0.160182
0.159860
0.159537
0.159537
0.160827
0.160827
0.160182
0.159860
0.160182
0.159860
0.160827
0.160182
0.161150
0.160505
0.160827
0.159860
0.160182
0.160182
0.160827
0.161150
0.159860
0.160505
0.161150
0.160827
0.159537
0.159215
0.160827
0.161472
0.160505
0.160827
0.160827
0.161150
0.160182
0.159860
0.160182
0.161472
0.165019
0.160505
0.159537
0.161150
0.160505
0.159537
0.160505
0.161472
0.160827
0.160827
0.160182
0.162117
0.161794
0.160505
0.160827
0.160505
0.160182
0.160505
0.159860
0.160182
0.159860
0.159860
0.160827
0.160827
0.160182
0.160182
0.160182
0.160182
0.160827
0.159537
0.159860
0.160505
0.164697
0.161150
0.160505
0.160505
0.160182
0.161150
0.159537
0.161150
0.160827
0.160182
0.159215
0.161472
0.160182
0.161150
0.159537
0.159860
0.159860
0.160827
0.161150
0.159537
0.160505
0.160827
0.160827
0.159860
0.159860
0.160827
0.160827
0.160182
0.160505
0.161150
0.160182
0.160182
0.160182
0.160505
0.161150
0.160182
0.160505
0.161150
0.160505
0.159860
0.159860
0.159537
0.161472
0.159537
0.159215
0.161150
0.160827
0.160182
0.159860
0.160182
0.160505
0.160827
0.160182
0.159860
0.160505
0.161150
0.160182
0.160505
0.160182
0.160827
0.160505
0.160182
0.159860
0.160827
0.160505
0.159860
0.160827
0.161472
0.160827
0.160182
0.161472
0.160505
0.161472
0.160182
0.160827
0.161150
0.160827
0.160827
0.161150
0.160505
0.161150
0.160182
0.160505
0.160827
0.160827
0.160505
0.160827
0.160505
0.161472
0.160182
0.160505
0.161472
0.161472
0.160505
0.160182
0.160505
0.160827
0.159860
0.159215
0.161150
0.160505
0.160827
0.160505
0.160182
0.161150
0.161150
0.159537
0.159860
0.160827
0.158892
0.161472
0.159860
0.160505
0.160827
0.161150
0.159860
0.160827
0.161472
0.161472
0.159537
0.163407
0.161150
0.161794
0.160505
0.161472
0.160505
0.161150
0.160505
0.160827
0.160182
0.160182
0.160505
0.161472
0.160505
0.159860
0.160827
0.160182
0.160827
0.161150
0.160505
0.160182
0.155667
0.161150
0.160827
0.160827
0.160827
0.160182
0.161150
0.159537
0.159537
0.160827
0.161150
0.162762
0.159537
0.159860
0.161150
0.159860
0.159215
0.159860
0.161472
0.159537
0.159860
0.159860
0.160182
0.161150
0.160182
0.159215
0.161472
0.161150
0.159860
0.159215
0.159537
0.160505
0.159860
0.159537
0.160182
0.160505
0.160827
0.160182
0.159215
0.160505
0.159860
0.159537
0.159860
0.159215
0.160827
0.160505
0.159215
0.160827
0.160505
0.159537
0.160505
0.160505
0.160505
0.160505
0.160182
0.160182
0.161472
0.160182
0.160505
0.160505
0.161150
0.160182
0.160182
0.160505
0.160505
0.160505
0.160505
0.160505
0.161472
0.160827
0.159860
0.160505
0.161472
0.161150
0.160505
0.160182
0.160505
0.162439
0.160505
0.159860
0.161794
0.161794
0.162117
0.160182
0.160827
0.161150
0.161472
0.159537
0.160505
0.161150
0.161472
0.160182
0.159860
0.160182
0.161472
0.160505
0.160505
0.160505
0.160827
0.161472
0.160505
0.160827
0.161150
0.160827
0.160827
0.160505
0.160182
0.160827
0.160505
0.160182
0.161150
0.160505
0.159860
0.160505
0.160505
0.161472
0.159860
0.160505
0.160182
0.160827
0.163729
0.159860
0.160505
0.161794
0.160182
0.160505
0.160505
0.161150
0.161150
0.159537
0.160182
0.162117
0.160827
0.160505
0.160827
0.161472
0.162117
0.161150
0.160505
0.161794
0.161150
0.164374
0.160827
0.161150
0.161472
0.160827
0.160827
0.160827
0.161472
0.162117
0.160505
0.161150
0.162439
0.160505
0.160182
0.162117
0.160505
0.161794
0.160827
0.161472
0.161794
0.161794
0.160827
0.161794
0.161150
0.161472
0.161150
0.160505
0.161794
0.161472
0.161150
0.160505
0.160827
0.161472
0.161150
0.160827
0.161472
0.160505
0.161472
0.160827
0.159860
0.160505
0.160827
0.159860
0.160182
0.160827
0.161150
0.160505
0.159860
0.160182
0.160505
0.160827
0.159537
0.160182
0.160505
0.161150
