Samp. Freq.(Hz)   Sample#   Pulse Length (ms)
10000.000000	5000.000000	50.000000
	
Voltage(V) 
0.164697
0.163084
0.163084
0.164697
0.164697
0.164374
0.164374
0.164374
0.164374
0.164697
0.164052
0.162762
0.164052
0.163729
0.162117
0.162762
0.162439
0.161794
0.162762
0.162439
0.163084
0.163407
0.157280
0.162439
0.163084
0.162762
0.162117
0.162117
0.162762
0.162117
0.164052
0.163729
0.162762
0.164052
0.162439
0.163407
0.162439
0.161794
0.162439
0.163407
0.162439
0.161794
0.162762
0.161794
0.162117
0.162762
0.162762
0.161794
0.162117
0.162117
0.161472
0.162762
0.161794
0.161150
0.161794
0.161472
0.161794
0.162117
0.160182
0.161472
0.161794
0.161150
0.160182
0.161150
0.161150
0.161472
0.159537
0.160505
0.160182
0.160827
0.159537
0.159860
0.159215
0.159215
0.162117
0.158247
0.157925
0.159537
0.159537
0.158892
0.160182
0.161150
0.161472
0.160505
0.160182
0.160827
0.160827
0.162117
0.160182
0.160505
0.162762
0.161794
0.159860
0.161472
0.161150
0.165342
0.160505
0.159537
0.161150
0.161794
0.161150
0.161150
0.162439
0.162762
0.162117
0.162762
0.160827
0.162439
0.162439
0.162117
0.161472
0.162439
0.162117
0.162439
0.161472
0.162117
0.163729
0.162439
0.161794
0.161472
0.163407
0.163407
0.163407
0.162439
0.162762
0.163407
0.162439
0.162117
0.162439
0.162762
0.162439
0.165019
0.162439
0.163084
0.164052
0.163407
0.162762
0.163407
0.164052
0.162762
0.163084
0.162117
0.163407
0.163729
0.162439
0.161472
0.164052
0.163729
0.162439
0.162439
0.163084
0.162117
0.163729
0.162117
0.162762
0.163084
0.162439
0.161150
0.162117
0.161472
0.161794
0.160505
0.161150
0.161794
0.163084
0.162117
0.162117
0.162117
0.164052
0.163407
0.164374
0.162762
0.164374
0.163084
0.164052
0.162762
0.163729
0.163084
0.162762
0.162439
0.163084
0.161472
0.162117
0.162439
0.162117
0.161794
0.162439
0.161472
0.165342
0.162762
0.162439
0.161794
0.162439
0.161794
0.163407
0.162117
0.163407
0.163407
0.163084
0.162762
0.163729
0.160827
0.159537
0.154378
0.150185
0.145026
0.141801
0.135997
0.132127
0.132127
0.125677
0.123098
0.118583
0.116648
0.113746
0.110199
0.108264
0.106006
0.103427
0.101492
0.099557
0.097300
0.096655
0.094397
0.093108
0.092785
0.090528
0.089238
0.087948
0.087303
0.086336
0.084401
0.084078
0.083111
0.081498
0.081821
0.080531
0.079564
0.079241
0.078274
0.077629
0.077629
0.077306
0.076661
0.076016
0.081176
0.074727
0.075049
0.074082
0.074082
0.073759
0.073759
0.072469
0.072469
0.072147
0.071502
0.072147
0.071824
0.071502
0.071502
0.070857
0.070534
0.071502
0.070857
0.069889
0.070534
0.073759
0.070857
0.070212
0.070212
0.070212
0.070534
0.069244
0.069567
0.070212
0.069567
0.069244
0.069567
0.068277
0.069244
0.068600
0.069244
0.068600
0.069567
0.068600
0.068600
0.068922
0.069567
0.068922
0.069244
0.069244
0.067632
0.068922
0.069244
0.068277
0.069244
0.069567
0.068922
0.069244
0.068922
0.068600
0.069567
0.073759
0.068922
0.068600
0.068922
0.068600
0.068600
0.068277
0.069567
0.068277
0.068922
0.067955
0.068600
0.068600
0.068922
0.068922
0.068277
0.068922
0.069244
0.069244
0.068277
0.068600
0.071502
0.068600
0.068600
0.068922
0.067955
0.068600
0.068600
0.068600
0.068922
0.068277
0.068277
0.068922
0.066987
0.069889
0.068922
0.068277
0.067955
0.068922
0.068277
0.068600
0.067955
0.068922
0.069244
0.068922
0.068600
0.068277
0.067955
0.068922
0.068600
0.068600
0.069244
0.068600
0.068922
0.068600
0.067955
0.068600
0.071179
0.068922
0.067955
0.068922
0.068277
0.069244
0.067632
0.067955
0.067632
0.068600
0.067310
0.068600
0.068277
0.068922
0.067632
0.067310
0.067955
0.068600
0.067955
0.067310
0.068277
0.071824
0.068600
0.067955
0.068600
0.068922
0.068277
0.067632
0.068600
0.068277
0.068922
0.068922
0.067632
0.069244
0.068600
0.069244
0.067632
0.068600
0.068922
0.067955
0.068922
0.068600
0.068600
0.070534
0.068600
0.067955
0.068277
0.069244
0.068277
0.068277
0.068922
0.068277
0.069244
0.068922
0.067955
0.069244
0.068922
0.070857
0.068600
0.068600
0.068922
0.067955
0.068922
0.068922
0.069567
0.068600
0.067955
0.068922
0.069244
0.069244
0.068600
0.068600
0.068277
0.069244
0.068277
0.068600
0.068922
0.068600
0.070212
0.068277
0.068600
0.068277
0.068922
0.067310
0.069244
0.068277
0.068600
0.067955
0.068277
0.068600
0.068600
0.067955
0.068600
0.068277
0.068922
0.068277
0.068600
0.068922
0.068922
0.068277
0.066987
0.067955
0.068600
0.068277
0.067955
0.067632
0.069244
0.068277
0.067632
0.068277
0.068277
0.068922
0.068922
0.067310
0.073437
0.069567
0.068600
0.067310
0.068600
0.068922
0.068922
0.067632
0.067955
0.067955
0.068922
0.067310
0.067632
0.067310
0.068922
0.068600
0.067632
0.067632
0.068600
0.068600
0.067632
0.070534
0.068600
0.069244
0.068277
0.067955
0.068600
0.068600
0.068277
0.067632
0.068600
0.069567
0.069567
0.068600
0.068922
0.068922
0.068922
0.068600
0.068277
0.068922
0.070212
0.068922
0.067955
0.068922
0.069889
0.068600
0.068600
0.067310
0.069244
0.069889
0.066342
0.067310
0.069244
0.068922
0.068600
0.068277
0.068600
0.069567
0.068600
0.067955
0.068600
0.069244
0.067955
0.069244
0.068922
0.068600
0.068277
0.068600
0.067632
0.068922
0.068277
0.068922
0.067632
0.068600
0.069244
0.068600
0.069567
0.069244
0.072147
0.068600
0.067632
0.067310
0.068600
0.067955
0.067632
0.067955
0.068600
0.068600
0.067632
0.067632
0.068600
0.069889
0.068277
0.067955
0.067632
0.069244
0.068600
0.068600
0.067632
0.069567
0.068600
0.067955
0.067955
0.067955
0.068922
0.068600
0.068277
0.068277
0.068600
0.067632
0.067310
0.068600
0.068277
0.068600
0.065052
0.068277
0.068277
0.068277
0.067955
0.067955
0.068277
0.068922
0.068277
0.068600
0.068277
0.068600
0.068600
0.069244
0.067632
0.069244
0.068922
0.068600
0.068922
0.067955
0.067955
0.070212
0.068600
0.068600
0.068922
0.067955
0.067632
0.068600
0.067955
0.067955
0.067632
0.068600
0.068922
0.068277
0.068600
0.068277
0.068600
0.067955
0.068600
0.067955
0.068277
0.067955
0.067955
0.069567
0.067632
0.068600
0.068277
0.067310
0.068600
0.068922
0.068277
0.068600
0.070212
0.068277
0.068277
0.067632
0.068922
0.067955
0.066342
0.068277
0.068922
0.066987
0.067632
0.067955
0.067955
0.067955
0.068600
0.067310
0.067955
0.068277
0.067955
0.066665
0.068600
0.071502
0.069244
0.068600
0.068922
0.068600
0.069244
0.067632
0.068277
0.068922
0.068600
0.067632
0.068277
0.067955
0.068922
0.068922
0.067955
0.067955
0.069567
0.067955
0.068277
0.069567
0.074404
0.078274
0.082788
0.085691
0.089238
0.093430
0.095365
0.097622
0.100524
0.103427
0.106329
0.108264
0.110521
0.112778
0.115036
0.119550
0.117616
0.119550
0.121485
0.122775
0.122130
0.124065
0.126322
0.126967
0.127935
0.128902
0.129547
0.132127
0.132127
0.131804
0.133417
0.135029
0.134707
0.133739
0.135997
0.136642
0.140511
0.136319
0.138254
0.138254
0.138899
0.138254
0.138576
0.138899
0.140189
0.139544
0.139866
0.140189
0.141156
0.141156
0.140189
0.142446
0.142446
0.142446
0.141801
0.142446
0.142769
0.143736
0.141801
0.142446
0.143091
0.143736
0.143413
0.142446
0.143413
0.144381
0.143413
0.144058
0.145026
0.144703
0.145348
0.145026
0.139866
0.146316
0.146316
0.145348
0.145026
0.146638
0.145348
0.145671
0.144703
0.145993
0.145671
0.145348
0.145348
0.145026
0.145993
0.146961
0.145026
0.145348
0.145993
0.146638
0.145026
0.148896
0.145993
0.146316
0.146638
0.145671
0.145993
0.147283
0.146961
0.146638
0.147283
0.147606
0.146638
0.146316
0.147283
0.147606
0.146316
0.147606
0.145993
0.146316
0.146638
0.146961
0.144703
0.147283
0.145993
0.146638
0.145348
0.147283
0.145348
0.147928
0.144703
0.146316
0.145026
0.146961
0.145993
0.146316
0.144703
0.142446
0.145026
0.145026
0.145026
0.145993
0.145026
0.146638
0.145026
0.145348
0.144703
0.145671
0.144703
0.145026
0.145026
0.145671
0.144381
0.145671
0.145993
0.145026
0.143091
0.146638
0.145671
0.145671
0.145026
0.144703
0.144703
0.145348
0.144703
0.144703
0.145026
0.145671
0.145993
0.145671
0.145993
0.145993
0.145671
0.146316
0.145993
0.145993
0.146316
0.146316
0.144703
0.146638
0.146638
0.146638
0.145348
0.145993
0.145671
0.145993
0.145993
0.145671
0.145026
0.145993
0.145348
0.144703
0.145671
0.146961
0.144381
0.145671
0.146638
0.146316
0.145993
0.145671
0.146316
0.145671
0.145993
0.145671
0.146316
0.145026
0.146961
0.145993
0.145993
0.146316
0.147928
0.144703
0.146638
0.146638
0.146316
0.142769
0.147283
0.144381
0.145993
0.145348
0.145348
0.144381
0.146316
0.145026
0.145993
0.144058
0.146638
0.145348
0.145026
0.145026
0.146638
0.145348
0.145993
0.145026
0.146961
0.145026
0.147283
0.144703
0.145671
0.146638
0.147606
0.145348
0.146961
0.146961
0.147283
0.146316
0.150185
0.147283
0.148251
0.148573
0.147928
0.146316
0.147928
0.147606
0.147283
0.147283
0.147283
0.147928
0.147606
0.146961
0.147928
0.147606
0.147606
0.147928
0.147928
0.147283
0.148573
0.149863
0.147928
0.148573
0.147606
0.147606
0.147928
0.147928
0.148573
0.147928
0.148251
0.145993
0.148573
0.150185
0.146961
0.147928
0.149218
0.148251
0.148251
0.148251
0.148251
0.147928
0.147928
0.148251
0.147928
0.147283
0.147606
0.147928
0.147928
0.147928
0.148896
0.148573
0.147928
0.149863
0.149540
0.148251
0.148896
0.150508
0.148896
0.147928
0.148251
0.147928
0.147283
0.148251
0.147606
0.147606
0.147283
0.147606
0.146961
0.146961
0.146961
0.147283
0.146316
0.146961
0.147928
0.146638
0.147283
0.147606
0.148573
0.146961
0.147283
0.146316
0.147283
0.147606
0.147283
0.146638
0.146961
0.147283
0.147928
0.147606
0.145993
0.147283
0.146638
0.147928
0.145348
0.148251
0.146638
0.147606
0.147283
0.147928
0.147283
0.148896
0.147606
0.147928
0.147606
0.148251
0.147283
0.147283
0.146638
0.147606
0.147928
0.146316
0.146316
0.148251
0.147283
0.146961
0.147606
0.147606
0.146961
0.146638
0.147606
0.148251
0.147283
0.147283
0.147606
0.147928
0.146316
0.148573
0.147283
0.146961
0.146316
0.147606
0.147283
0.146961
0.146638
0.152120
0.147606
0.147283
0.147283
0.147928
0.147283
0.146961
0.147928
0.148251
0.147928
0.146961
0.148573
0.147606
0.146961
0.146961
0.146638
0.148251
0.146961
0.146961
0.146316
0.145671
0.147928
0.146638
0.146638
0.147283
0.146638
0.147283
0.147928
0.147606
0.146961
0.147606
0.147928
0.147928
0.148251
0.148573
0.148573
0.144703
0.148573
0.148251
0.149218
0.147928
0.147928
0.149540
0.148573
0.147606
0.147928
0.148251
0.148573
0.147928
0.147606
0.147606
0.148573
0.148251
0.146961
0.147928
0.148573
0.147928
0.144703
0.148251
0.147928
0.148251
0.148896
0.146961
0.147928
0.148896
0.148896
0.147928
0.148251
0.149218
0.148573
0.147928
0.147928
0.148896
0.148573
0.148896
0.147928
0.147928
0.147606
0.148896
0.148251
0.147283
0.147606
0.149218
0.147283
0.146638
0.148573
0.146961
0.147606
0.148251
0.147606
0.146638
0.146961
0.145993
0.145671
0.146961
0.147606
0.145671
0.146961
0.146638
0.147283
0.145993
0.146316
0.144703
0.147606
0.145993
0.146638
0.146316
0.147283
0.146961
0.145993
0.146316
0.147283
0.146316
0.148251
0.142124
0.147606
0.145671
0.147928
0.147606
0.146638
0.147606
0.148251
0.146316
0.147928
0.147283
0.147606
0.145993
0.146638
0.148251
0.146638
0.146316
0.147928
0.146961
0.148251
0.147283
0.147928
0.147283
0.147283
0.147928
0.147606
0.146961
0.147283
0.147606
0.147606
0.146638
0.148251
0.147283
0.147928
0.146961
0.147606
0.146961
0.146961
0.146638
0.148896
0.146961
0.146961
0.147283
0.146961
0.147606
0.148251
0.147606
0.147283
0.145993
0.149218
0.147606
0.146316
0.147283
0.147606
0.148573
0.147283
0.147606
0.145671
0.146961
0.147928
0.146961
0.146961
0.146316
0.146638
0.147606
0.146316
0.146316
0.147283
0.145993
0.146316
0.146316
0.145993
0.146638
0.144381
0.147606
0.146316
0.146638
0.145348
0.146961
0.146961
0.146961
0.146316
0.147283
0.145993
0.149218
0.146316
0.146638
0.146638
0.152120
0.148573
0.147283
0.147606
0.148573
0.145671
0.149218
0.146638
0.148251
0.147928
0.147283
0.148251
0.147606
0.146638
0.147928
0.146316
0.147928
0.147606
0.148573
0.146638
0.148251
0.152120
0.147928
0.147928
0.148251
0.147928
0.149540
0.147928
0.147928
0.147283
0.147928
0.148573
0.148251
0.147606
0.148251
0.148573
0.149540
0.147928
0.148896
0.148896
0.147928
0.148251
0.147606
0.147283
0.148573
0.147606
0.148573
0.148251
0.148251
0.147283
0.148896
0.148896
0.148573
0.149540
0.147928
0.147606
0.149218
0.150830
0.147928
0.147928
0.147928
0.148896
0.147928
0.146316
0.147928
0.149218
0.147283
0.147928
0.146961
0.146961
0.147283
0.147606
0.147606
0.147606
0.147606
0.147606
0.147928
0.147283
0.151153
0.147606
0.146961
0.148251
0.147283
0.148573
0.147606
0.147606
0.148251
0.147606
0.147606
0.147283
0.147928
0.149863
0.148251
0.147283
0.147606
0.149218
0.148251
0.148251
0.146961
0.148251
0.147606
0.148896
0.147606
0.148573
0.148251
0.148896
0.148896
0.147606
0.147606
0.148251
0.147606
0.148251
0.147606
0.149863
0.144703
0.148896
0.148573
0.149540
0.149540
0.149218
0.147928
0.149540
0.148896
0.148251
0.147283
0.148896
0.149540
0.147606
0.149218
0.147606
0.147283
0.149540
0.147606
0.148251
0.146638
0.146961
0.148896
0.148251
0.146961
0.147606
0.146638
0.148251
0.147606
0.146961
0.145993
0.147283
0.148251
0.146961
0.146316
0.145993
0.147283
0.147928
0.146638
0.146961
0.146961
0.148251
0.148251
0.146316
0.146961
0.147928
0.147283
0.147928
0.146316
0.147928
0.147606
0.147283
0.149218
0.147928
0.147283
0.148896
0.147283
0.148573
0.148896
0.148896
0.147928
0.146961
0.149218
0.148573
0.148896
0.147928
0.148573
0.149863
0.149540
0.148251
0.148251
0.148251
0.151153
0.150830
0.146638
0.149218
0.148573
0.149540
0.148896
0.148573
0.149863
0.149218
0.148573
0.147283
0.148251
0.149540
0.148896
0.148573
0.148896
0.148896
0.149218
0.148896
0.148896
0.148573
0.149540
0.147606
0.147606
0.149540
0.149540
0.148251
0.148251
0.148573
0.149540
0.148896
0.148573
0.147606
0.148573
0.149540
0.148573
0.148251
0.148573
0.148573
0.150508
0.147928
0.144703
0.147606
0.148896
0.147606
0.146961
0.146961
0.148251
0.146961
0.148251
0.145993
0.148573
0.146638
0.146961
0.148251
0.147283
0.147928
0.149863
0.146638
0.147606
0.148896
0.147283
0.145348
0.147928
0.147928
0.148573
0.147928
0.147283
0.148251
0.148896
0.146961
0.148573
0.147283
0.147606
0.148896
0.147606
0.146638
0.147928
0.147928
0.148573
0.147283
0.147928
0.149218
0.147928
0.149540
0.148896
0.149218
0.148896
0.149218
0.148573
0.148573
0.148573
0.148251
0.151475
0.150508
0.148896
0.149863
0.148251
0.148573
0.150185
0.148573
0.148573
0.147606
0.148251
0.149540
0.147928
0.148251
0.147283
0.147283
0.148251
0.148251
0.148251
0.148251
0.147928
0.153733
0.148251
0.147928
0.147928
0.148251
0.149218
0.148251
0.147606
0.147928
0.149218
0.150508
0.146638
0.148251
0.147283
0.148896
0.148251
0.147928
0.147928
0.147928
0.147606
0.149863
0.147283
0.148251
0.147928
0.148251
0.148573
0.148251
0.148573
0.148573
0.147606
0.148251
0.149218
0.148573
0.148251
0.147606
0.149218
0.146316
0.149540
0.149218
0.148251
0.149863
0.148896
0.148896
0.148573
0.148573
0.149218
0.149218
0.148896
0.148573
0.148251
0.151475
0.148573
0.148896
0.149218
0.148896
0.150508
0.148573
0.149218
0.148896
0.149218
0.149218
0.145993
0.149218
0.148896
0.149540
0.151153
0.149540
0.148573
0.150830
0.148573
0.151153
0.149540
0.149863
0.148251
0.149540
0.151153
0.144703
0.149540
0.149540
0.149863
0.149863
0.151153
0.148896
0.149540
0.148251
0.148896
0.146638
0.148573
0.147606
0.148573
0.148573
0.147928
0.147606
0.145671
0.147606
0.149218
0.148896
0.147283
0.147928
0.146316
0.148251
0.147928
0.146961
0.145993
0.146316
0.147928
0.148896
0.146961
0.146961
0.148251
0.148251
0.147928
0.146961
0.147606
0.145993
0.150185
0.146961
0.147283
0.147283
0.148896
0.149540
0.147606
0.147283
0.148251
0.147928
0.148573
0.146316
0.147928
0.148573
0.146961
0.148251
0.148573
0.148251
0.149218
0.147606
0.148896
0.149540
0.149863
0.147606
0.148896
0.148573
0.149218
0.148896
0.148251
0.147606
0.150830
0.149218
0.148573
0.147606
0.148896
0.145671
0.149218
0.148251
0.148573
0.148573
0.149218
0.146638
0.148573
0.148896
0.148251
0.150185
0.149540
0.147928
0.149218
0.149540
0.149540
0.149540
0.149863
0.149218
0.149540
0.149218
0.145671
0.149218
0.148251
0.147606
0.148896
0.148251
0.148251
0.148573
0.147928
0.149863
0.148896
0.148573
0.148251
0.147606
0.148573
0.148251
0.147928
0.147928
0.148251
0.149863
0.148573
0.148251
0.148251
0.148573
0.148896
0.148251
0.148896
0.148896
0.147928
0.150185
0.148251
0.153410
0.148896
0.149863
0.149863
0.148573
0.147928
0.149540
0.148573
0.150185
0.147928
0.148251
0.149540
0.149863
0.148896
0.148573
0.148896
0.149218
0.147606
0.149863
0.149218
0.149540
0.152120
0.148896
0.147928
0.149540
0.149218
0.148573
0.148896
0.149218
0.149218
0.150185
0.147928
0.149218
0.149540
0.149540
0.148251
0.149218
0.149540
0.149863
0.148896
0.148896
0.149540
0.150508
0.149540
0.148573
0.149218
0.149218
0.149218
0.149218
0.148896
0.150185
0.149218
0.148896
0.149540
0.147928
0.149218
0.148251
0.145993
0.148573
0.148573
0.150185
0.148896
0.148573
0.149218
0.149540
0.149540
0.148573
0.147928
0.149863
0.149540
0.149218
0.149540
0.149218
0.149540
0.148896
0.150508
0.148896
0.149863
0.152443
0.148573
0.148573
0.149218
0.148573
0.148896
0.149540
0.149540
0.149863
0.149540
0.149540
0.150508
0.149863
0.149863
0.149218
0.150185
0.149863
0.149863
0.149218
0.150508
0.150185
0.149863
0.149540
0.149863
0.151153
0.149540
0.149218
0.149863
0.149540
0.149863
0.148573
0.149218
0.149218
0.150508
0.148573
0.148896
0.144381
0.150185
0.151153
0.149218
0.148896
0.150185
0.148896
0.149540
0.149218
0.148896
0.148896
0.149218
0.149218
0.149540
0.148251
0.149218
0.147928
0.148573
0.148573
0.149540
0.148251
0.152120
0.147606
0.149540
0.148251
0.147606
0.147928
0.149863
0.148573
0.147606
0.148573
0.148896
0.148573
0.148573
0.147928
0.148251
0.147928
0.147928
0.147606
0.147928
0.147606
0.147928
0.148573
0.148896
0.148251
0.149218
0.147928
0.148896
0.147928
0.147928
0.148573
0.148251
0.147928
0.148896
0.148573
0.148896
0.148573
0.147928
0.149863
0.148896
0.149218
0.150830
0.149863
0.148251
0.150185
0.151153
0.148896
0.149540
0.149540
0.149540
0.149540
0.149863
0.149218
0.152765
0.150185
0.150185
0.148896
0.149863
0.148896
0.149540
0.149540
0.148251
0.149863
0.150508
0.147928
0.148573
0.149540
0.148896
0.148896
0.148573
0.149218
0.148573
0.149863
0.149540
0.151153
0.149863
0.149218
0.149540
0.149863
0.149540
0.150185
0.149218
0.149540
0.149540
0.149540
0.149863
0.149540
0.149218
0.148896
0.152443
0.150508
0.149218
0.148573
0.148573
0.150185
0.148896
0.148251
0.147928
0.149218
0.148251
0.148251
0.147606
0.150185
0.148896
0.148896
0.149218
0.147283
0.150185
0.149540
0.147928
0.151475
0.149540
0.149218
0.149218
0.149218
0.149218
0.148896
0.148573
0.149863
0.149863
0.150508
0.149540
0.149540
0.150185
0.151475
0.149540
0.149218
0.149863
0.150508
0.148896
0.148896
0.149540
0.150830
0.149540
0.149540
0.149218
0.149863
0.150508
0.148896
0.149540
0.149540
0.150185
0.147928
0.148573
0.149218
0.149863
0.151798
0.149218
0.149218
0.149863
0.149540
0.147928
0.148896
0.150185
0.149218
0.148251
0.148573
0.149218
0.149540
0.150185
0.148251
0.149540
0.149218
0.148896
0.148251
0.148573
0.147606
0.153410
0.147606
0.148251
0.149218
0.149863
0.148573
0.148251
0.149218
0.149540
0.148896
0.148251
0.149540
0.148573
0.149540
0.148251
0.147606
0.149218
0.148573
0.148573
0.148573
0.148573
0.148896
0.149540
0.147283
0.149218
0.148896
0.149218
0.147928
0.147928
0.148896
0.149863
0.148573
0.148573
0.148896
0.149863
0.148573
0.146638
0.149218
0.149863
0.149540
0.148896
0.148896
0.149863
0.150185
0.149218
0.148896
0.148896
0.150185
0.149863
0.149218
0.149540
0.149863
0.151153
0.149540
0.150185
0.150185
0.150185
0.145348
0.148573
0.149540
0.150185
0.150508
0.150185
0.149540
0.149863
0.149218
0.149218
0.149863
0.150185
0.149540
0.148573
0.149863
0.149218
0.149540
0.150185
0.150185
0.149218
0.149540
0.149218
0.149540
0.148896
0.149218
0.149540
0.148573
0.148251
0.148573
0.148896
0.149218
0.150185
0.149540
0.149218
0.148896
0.147928
0.149863
0.149218
0.148896
0.148573
0.148896
0.148251
0.147928
0.147928
0.148896
0.149540
0.149218
0.148573
0.148896
0.149218
0.150185
0.149218
0.152443
0.150185
0.150830
0.150508
0.149540
0.150508
0.151153
0.150508
0.150508
0.150508
0.149863
0.149863
0.150185
0.149863
0.149540
0.152120
0.149218
0.149863
0.149218
0.150185
0.150508
0.150185
0.149863
0.150508
0.150830
0.149218
0.150830
0.150830
0.150830
0.149863
0.149863
0.149863
0.151153
0.149863
0.149863
0.150185
0.152765
0.150185
0.149540
0.149540
0.150508
0.149863
0.150508
0.149218
0.149863
0.150185
0.149863
0.149863
0.149863
0.150830
0.149863
0.148573
0.149218
0.150185
0.149863
0.149863
0.149218
0.152443
0.149863
0.149218
0.148573
0.149863
0.148896
0.148896
0.148896
0.148573
0.148896
0.149540
0.149863
0.150185
0.149218
0.149540
0.147606
0.148896
0.148896
0.148573
0.149863
0.149863
0.148251
0.149540
0.149218
0.148896
0.149218
0.149540
0.148896
0.148573
0.148573
0.148896
0.149540
0.149218
0.149540
0.150185
0.148896
0.153733
0.148573
0.150508
0.149540
0.150508
0.149540
0.149540
0.149540
0.149863
0.149218
0.150508
0.149863
0.150185
0.150508
0.150185
0.150185
0.151475
0.150185
0.150185
0.149863
0.150185
0.152443
0.150185
0.150185
0.151153
0.150830
0.151153
0.149863
0.150185
0.149863
0.150508
0.150830
0.150508
0.151798
0.150830
0.150185
0.151153
0.151153
0.151153
0.150185
0.151475
0.150185
0.150830
0.149863
0.149863
0.151153
0.150185
0.150508
0.149540
0.150185
0.149540
0.150185
0.149863
0.149863
0.150508
0.151798
0.149863
0.148251
0.150830
0.149863
0.150508
0.149218
0.149863
0.149863
0.149218
0.148896
0.148251
0.149863
0.150185
0.149540
0.149863
0.149540
0.149863
0.151798
0.149540
0.150508
0.151153
0.151798
0.149218
0.150508
0.151153
0.152120
0.151153
0.150830
0.150830
0.151798
0.150185
0.151153
0.150830
0.151475
0.151475
0.151153
0.149540
0.149540
0.150508
0.150508
0.149863
0.150830
0.150508
0.151153
0.149863
0.150185
0.151153
0.151153
0.150185
0.151475
0.150508
0.149863
0.150185
0.150508
0.150508
0.151153
0.151153
0.150830
0.149863
0.150830
0.150185
0.151153
0.151475
0.151153
0.150830
0.150508
0.149863
0.150185
0.151475
0.150185
0.149863
0.151475
0.150508
0.149863
0.152120
0.150185
0.151153
0.151153
0.150185
0.149863
0.150508
0.150508
0.149540
0.150185
0.149540
0.151475
0.150185
0.149218
0.149863
0.149218
0.149863
0.150185
0.149218
0.149218
0.149863
0.149218
0.149540
0.149218
0.150508
0.149863
0.149540
0.150508
0.148896
0.149218
0.150185
0.149218
0.149540
0.149540
0.148896
0.149218
0.148251
0.151153
0.149540
0.150185
0.149863
0.151475
0.150508
0.150185
0.151153
0.150185
0.150508
0.150185
0.150185
0.149540
0.149863
0.149540
0.150508
0.151475
0.151798
0.149540
0.150185
0.153088
0.150830
0.151153
0.150508
0.150185
0.150830
0.149218
0.149540
0.151153
0.150830
0.150830
0.151153
0.149863
0.150508
0.151153
0.150185
0.150185
0.151798
0.150830
0.150830
0.151153
0.150830
0.149863
0.151798
0.150508
0.150185
0.150508
0.150830
0.150185
0.149863
0.149218
0.151153
0.150830
0.150185
0.150185
0.150185
0.154055
0.148896
0.149863
0.151153
0.149863
0.149863
0.151153
0.148573
0.150185
0.151475
0.150508
0.151475
0.151798
0.151798
0.151153
0.151153
0.152120
0.153088
0.152120
0.151798
0.152120
0.147928
0.152443
0.152765
0.152120
0.152443
0.152765
0.151798
0.152120
0.152443
0.151798
0.152120
0.152120
0.151798
0.152443
0.152120
0.151798
0.151153
0.151798
0.151475
0.151475
0.151475
0.151153
0.150830
0.151475
0.150508
0.150830
0.152120
0.151153
0.150830
0.151798
0.150508
0.152765
0.151153
0.150830
0.150185
0.150830
0.148251
0.150185
0.151153
0.152120
0.151798
0.152120
0.152120
0.151798
0.150508
0.151153
0.151153
0.149863
0.151475
0.151153
0.150508
0.150185
0.152120
0.150830
0.151153
0.151798
0.150830
0.151798
0.150185
0.150830
0.150185
0.151153
0.149863
0.149863
0.149540
0.149863
0.149218
0.149863
0.149863
0.151153
0.149540
0.149540
0.149540
0.149863
0.150185
0.149863
0.150185
0.150185
0.149540
0.149218
0.149540
0.150185
0.150508
0.150830
0.149863
0.150185
0.150508
0.150830
0.150830
0.151153
0.151153
0.152120
0.150508
0.149863
0.150185
0.150830
0.150830
0.151475
0.150185
0.150830
0.150508
0.150185
0.150185
0.151153
0.152120
0.150830
0.151153
0.151153
0.150830
0.155667
0.149863
0.150508
0.150185
0.151153
0.149218
0.150508
0.151475
0.152120
0.151153
0.149863
0.150830
0.151798
0.150508
0.149218
0.150508
0.150508
0.150830
0.149863
0.151153
0.151153
0.151798
0.150830
0.150508
0.151475
0.151798
0.151153
0.150508
0.150185
0.150830
0.150508
0.150185
0.149218
0.150830
0.150508
0.149540
0.152443
0.150830
0.150830
0.151153
0.149863
0.150185
0.151798
0.151798
0.149863
0.151153
0.151153
0.151798
0.151153
0.150185
0.151153
0.152120
0.151475
0.150830
0.150830
0.151475
0.151475
0.152120
0.150185
0.151475
0.149863
0.150185
0.150185
0.150185
0.150185
0.150185
0.149540
0.150508
0.149863
0.150830
0.149540
0.149540
0.149218
0.151153
0.149540
0.150185
0.150508
0.150185
0.151153
0.150185
0.150508
0.151153
0.150508
0.150508
0.150508
0.149863
0.150830
0.150185
0.150508
0.151475
0.151153
0.150830
0.150508
0.146316
0.150830
0.150508
0.150185
0.150185
0.149540
0.150508
0.149540
0.150185
0.150185
0.149863
0.149863
0.150185
0.150508
0.150508
0.150508
0.150830
0.151153
0.150185
0.149863
0.150508
0.153088
0.149863
0.150185
0.149540
0.149863
0.150185
0.149863
0.149218
0.152120
0.149863
0.151153
0.149863
0.149863
0.149540
0.150830
0.149540
0.149218
0.150508
0.151475
0.150508
0.149863
0.149863
0.150508
0.151475
0.150185
0.149218
0.150185
0.150508
0.150185
0.149863
0.150185
0.151475
0.151475
0.150508
0.150508
0.150830
0.150185
0.150185
0.150185
0.150508
0.150830
0.150830
0.149863
0.150185
0.151475
0.152120
0.149863
0.151153
0.151153
0.151153
0.152443
0.149863
0.152120
0.150830
0.151798
0.151153
0.151153
0.150508
0.151153
0.150830
0.150185
0.150185
0.151798
0.151153
0.150185
0.151153
0.151798
0.151153
0.151153
0.151153
0.149863
0.152765
0.150830
0.150830
0.151798
0.151798
0.151475
0.150830
0.151475
0.151475
0.152120
0.150830
0.151153
0.150830
0.151475
0.151153
0.150508
0.149218
0.151475
0.151153
0.150185
0.149218
0.150508
0.149218
0.149218
0.149863
0.150185
0.150185
0.149540
0.149863
0.148573
0.150508
0.149540
0.149540
0.149863
0.149863
0.149540
0.150185
0.149863
0.150185
0.150185
0.149863
0.149540
0.149540
0.148896
0.149540
0.150508
0.150185
0.150185
0.149218
0.148896
0.149863
0.148896
0.149863
0.149218
0.150508
0.150508
0.150830
0.149540
0.151475
0.149540
0.151475
0.149540
0.150508
0.151153
0.150185
0.149540
0.150508
0.149540
0.151153
0.151153
0.150508
0.150508
0.150185
0.150508
0.153088
0.149218
0.150185
0.151153
0.150185
0.148573
0.150508
0.150185
0.149863
0.148251
0.149218
0.149218
0.149863
0.149218
0.148573
0.149863
0.149863
0.149863
0.148896
0.149863
0.149863
0.154055
0.148251
0.148573
0.149540
0.149863
0.148896
0.148573
0.149863
0.148896
0.150185
0.148896
0.149218
0.149863
0.150185
0.148573
0.149540
0.149540
0.150508
0.150185
0.150185
0.150185
0.152443
0.151798
0.151798
0.151798
0.152120
0.151798
0.149540
0.150508
0.151475
0.150830
0.150830
0.150508
0.150830
0.151153
0.151798
0.145993
0.150830
0.151475
0.151153
0.151153
0.151798
0.152120
0.151798
0.151475
0.151798
0.151153
0.151798
0.152443
0.151153
0.150508
0.151798
0.152443
0.150185
0.151798
0.151153
0.151798
0.150185
0.150830
0.149863
0.152443
0.150508
0.150830
0.149863
0.150185
0.151475
0.151153
0.150508
0.151475
0.152120
0.151475
0.151475
0.151153
0.151475
0.152120
0.151153
0.150830
0.151153
0.151798
0.150508
0.149863
0.150185
0.151153
0.149863
0.149863
0.149540
0.150830
0.149540
0.150185
0.150830
0.149863
0.150185
0.149863
0.148573
0.149540
0.149540
0.150508
0.149218
0.148896
0.150508
0.150830
0.150185
0.151153
0.150508
0.151798
0.151153
0.151798
0.151153
0.151798
0.151798
0.151475
0.151475
0.151153
0.150508
0.148251
0.151153
0.150830
0.151153
0.150508
0.150830
0.151475
0.150830
0.150830
0.150508
0.150185
0.151475
0.151475
0.151153
0.151798
0.151475
0.150185
0.150830
0.151798
0.151798
0.150830
0.150830
0.151475
0.151475
0.151798
0.150508
0.150508
0.152443
0.151798
0.150830
0.150830
0.151475
0.151153
0.151475
0.149863
0.151153
0.151475
0.148896
0.150185
0.150185
0.149863
0.150830
0.150185
0.149863
0.150830
0.151475
0.150830
0.150508
0.150185
0.150830
0.150830
0.149863
0.150185
0.150830
0.150508
0.150185
0.149540
0.150508
0.151475
0.150508
0.149863
0.150508
0.151798
0.150185
0.149218
0.149218
0.150508
0.150185
0.149540
0.149540
0.149218
0.150508
0.149540
0.149540
0.150185
0.150508
0.150185
0.151153
0.150508
0.150508
0.151153
0.150508
0.149863
0.151153
0.151153
0.151798
0.151153
0.151153
0.155990
0.151798
0.151153
0.152443
0.151153
0.151798
0.150830
0.151475
0.151153
0.150508
0.149863
0.153088
0.151153
0.152120
0.152120
0.151153
0.151475
0.151798
0.151475
0.152120
0.150185
0.155345
0.151798
0.152120
0.151798
0.152765
0.151798
0.151475
0.151798
0.151798
0.151475
0.151798
0.151153
0.151153
0.151475
0.151475
0.151475
0.151798
0.152120
0.151475
0.151475
0.151798
0.152120
0.152443
0.151153
0.151153
0.151153
0.151153
0.151153
0.149863
0.151153
0.150508
0.151798
0.150185
0.150508
0.151475
0.151475
0.149218
0.150508
0.150185
0.150830
0.149863
0.149540
0.150185
0.151153
0.150830
0.149863
0.149863
0.150185
0.151153
0.150508
0.148251
0.151153
0.150830
0.149863
0.148251
0.150185
0.150508
0.148573
0.149863
0.149863
0.151153
0.151475
0.149863
0.150185
0.150830
0.151798
0.150185
0.150508
0.150830
0.152120
0.152120
0.151475
0.150830
0.152443
0.152443
0.151798
0.151153
0.151798
0.152120
0.151798
0.150185
0.150830
0.151798
0.150830
0.150830
0.151153
0.150830
0.151798
0.151153
0.151153
0.151798
0.152120
0.150508
0.155023
0.150830
0.151475
0.151798
0.151153
0.150508
0.151153
0.151475
0.151153
0.151153
0.151798
0.151798
0.152443
0.151798
0.150185
0.151798
0.150830
0.151153
0.151798
0.149218
0.151475
0.153733
0.150185
0.149863
0.150830
0.150508
0.149863
0.149863
0.149863
0.150508
0.150185
0.151153
0.150508
0.151153
0.150830
0.150185
0.150185
0.151798
0.150508
0.151153
0.150185
0.151798
0.151475
0.151153
0.150508
0.151798
0.150508
0.151475
0.151475
0.151153
0.150830
0.151798
0.151798
0.151153
0.149863
0.151153
0.151153
0.149863
0.151153
0.151475
0.151475
0.151153
0.151475
0.151475
0.151153
0.152443
0.151475
0.151153
0.150508
0.151798
0.151475
0.151153
0.151153
0.152765
0.151798
0.152443
0.151475
0.152120
0.151475
0.151798
0.151798
0.150830
0.151475
0.151798
0.152120
0.151153
0.151153
0.153088
0.151798
0.151798
0.152443
0.152443
0.151798
0.152443
0.151475
0.152443
0.152120
0.152120
0.150830
0.151153
0.151475
0.152443
0.151475
0.149540
0.150830
0.152120
0.151153
0.150185
0.150185
0.152120
0.151153
0.150830
0.150185
0.151475
0.151153
0.151153
0.150508
0.151153
0.152120
0.152120
0.150508
0.151798
0.151475
0.152120
0.151153
0.150830
0.151475
0.151798
0.150830
0.150830
0.155023
0.152443
0.151798
0.150508
0.151153
0.151475
0.151798
0.151153
0.150830
0.151153
0.152765
0.151798
0.150185
0.152120
0.152120
0.151798
0.151153
0.150830
0.151798
0.153088
0.151798
0.151153
0.152120
0.151798
0.151153
0.150830
0.151153
0.151798
0.153088
0.151798
0.151475
0.151475
0.153088
0.152120
0.152443
0.152120
0.154055
0.152120
0.152443
0.151475
0.150830
0.151475
0.151153
0.151798
0.152120
0.151798
0.152120
0.151475
0.151475
0.150830
0.152443
0.151153
0.151798
0.151475
0.151153
0.151475
0.152120
0.154055
0.152120
0.151153
0.151798
0.151798
0.151153
0.151153
0.152443
0.151798
0.151798
0.150508
0.151153
0.151153
0.151475
0.149863
0.152120
0.150508
0.150508
0.150508
0.151475
0.150830
0.151153
0.150508
0.149863
0.150830
0.150508
0.151475
0.151475
0.151475
0.151153
0.151153
0.151475
0.151153
0.152120
0.151798
0.152120
0.148896
0.151798
0.151798
0.152443
0.151475
0.151798
0.152765
0.152443
0.151475
0.151475
0.151798
0.152443
0.151475
0.151475
0.151153
0.151798
0.151798
0.151153
0.151153
0.151798
0.152765
0.147606
0.151475
0.152120
0.152765
0.152443
0.151153
0.151475
0.153088
0.151475
0.151798
0.151153
0.152443
0.152443
0.151475
0.151475
0.151475
0.153733
0.152120
0.151475
0.151798
0.153410
0.151798
0.152765
0.151475
0.150830
0.152120
0.151475
0.152120
0.151153
0.151798
0.151798
0.152120
0.151153
0.151153
0.151475
0.151153
0.150185
0.150830
0.151153
0.151153
0.151153
0.151475
0.150508
0.151475
0.151153
0.151475
0.150508
0.152120
0.150508
0.151475
0.151153
0.151475
0.154055
0.151475
0.150830
0.151153
0.151153
0.151153
0.151153
0.150830
0.150830
0.151475
0.151153
0.151798
0.152120
0.152120
0.152443
0.152765
0.152443
0.151798
0.152765
0.151798
0.151475
0.150508
0.151798
0.152120
0.151475
0.150830
0.151475
0.152443
0.150830
0.150830
0.152443
0.151475
0.152765
0.151153
0.151475
0.152443
0.147283
0.151153
0.151475
0.152443
0.152120
0.151153
0.150508
0.151153
0.151475
0.150830
0.151475
0.151475
0.152765
0.152120
0.152443
0.150830
0.152120
0.152765
0.151475
0.150508
0.152120
0.152765
0.151153
0.150830
0.150830
0.150508
0.151475
0.150508
0.150185
0.151153
0.152120
0.149540
0.149540
0.149863
0.150830
0.151153
0.151153
0.151475
0.151798
0.151798
0.152120
0.152443
0.152443
0.152765
0.153410
0.152120
0.152443
0.153088
0.152765
0.152120
0.153088
0.153088
0.153088
0.152765
0.152765
0.150185
0.153088
0.151798
0.152120
0.152443
0.152443
0.152120
0.152120
0.152443
0.153733
0.152443
0.152765
0.152765
0.152765
0.152120
0.152443
0.152765
0.153410
0.153410
0.151798
0.152120
0.152443
0.153088
0.151475
0.152765
0.153410
0.154055
0.152443
0.153088
0.153088
0.152443
0.152120
0.151798
0.152120
0.152443
0.151153
0.151153
0.150830
0.152443
0.151798
0.151798
0.151153
0.151475
0.152765
0.151798
0.151153
0.152120
0.151798
0.152120
0.149863
0.151153
0.151798
0.151798
0.150185
0.150830
0.151798
0.152120
0.150830
0.150830
0.150185
0.150830
0.151475
0.149540
0.150508
0.151153
0.151798
0.150508
0.150508
0.151475
0.151153
0.151798
0.150830
0.151475
0.152120
0.151153
0.154055
0.152120
0.152120
0.152120
0.152120
0.150830
0.152443
0.153410
0.152120
0.152443
0.152765
0.153410
0.153088
0.153088
0.152765
0.153733
0.153410
0.153410
0.153088
0.153410
0.153088
0.153733
0.152443
0.152443
0.153410
0.152765
0.152120
0.152765
0.152765
0.153733
0.152765
0.152765
0.153410
0.152443
0.152765
0.152443
0.155023
0.153088
0.152120
0.152765
0.152443
0.151475
0.152120
0.152443
0.151475
0.152120
0.152765
0.152120
0.151153
0.152120
0.151475
0.150508
0.152765
0.151153
0.151475
0.151153
0.151475
0.155667
0.151798
0.150830
0.151153
0.151153
0.151153
0.150830
0.150830
0.151475
0.151153
0.150185
0.149540
0.150508
0.150830
0.149863
0.149863
0.151153
0.151798
0.152120
0.151798
0.152120
0.152443
0.152443
0.152120
0.152443
0.152765
0.153088
0.152765
0.151475
0.152765
0.152443
0.152765
0.151153
0.153088
0.152443
0.152765
0.149218
0.151798
0.151798
0.153088
0.152765
0.151798
0.153410
0.152765
0.153410
0.153088
0.152120
0.153088
0.154055
0.152443
0.151153
0.152765
0.153733
0.152120
0.151475
0.152765
0.153410
0.155023
0.152443
0.152443
0.152765
0.154378
0.153410
0.153410
0.152765
0.153733
0.153733
0.152765
0.152120
0.153410
0.153733
0.152765
0.152443
0.153088
0.153088
0.153088
0.152443
0.151798
0.153410
0.153088
0.153410
0.152765
0.153410
0.152765
0.152765
0.151798
0.152120
0.153410
0.152120
0.151798
0.151153
0.152120
0.151475
0.147928
0.150508
0.152443
0.151475
0.151475
0.151798
0.151153
0.151798
0.151798
0.151798
0.152443
0.151798
0.151798
0.152443
0.152120
0.152443
0.152120
0.152765
0.152765
0.152765
0.153088
0.152765
0.154378
0.153733
0.153410
0.152765
0.153733
0.154378
0.153733
0.152765
0.153733
0.154378
0.153733
0.154378
0.153410
0.154055
0.153733
0.152765
0.152765
0.153733
0.154055
0.153733
0.152443
0.153088
0.153733
0.154055
0.152443
0.155023
0.153733
0.154700
0.152765
0.153088
0.153088
0.154700
0.153088
0.152765
0.152120
0.148896
0.153088
0.152443
0.151153
0.153088
0.152120
0.152120
0.151475
0.152120
0.152765
0.152120
0.151798
0.152765
0.152765
0.152765
0.152443
0.153410
0.152765
0.153088
0.152443
0.152443
0.150185
0.152120
0.152120
0.151798
0.150830
0.153410
0.151153
0.152120
0.150830
0.150508
0.150830
0.152120
0.150508
0.151153
0.152443
0.152120
0.152443
0.152765
0.152443
0.152443
0.152765
0.152765
0.152443
0.152120
0.152443
0.151798
0.153088
0.151798
0.152120
0.152765
0.152765
0.155023
0.152120
0.152765
0.151798
0.152120
0.151153
0.151798
0.153088
0.152765
0.152120
0.152443
0.153410
0.152120
0.152765
0.152120
0.153088
0.153410
0.153410
0.151153
0.153410
0.152443
0.155023
0.151475
0.152443
0.152120
0.153733
0.152120
0.152765
0.154055
0.153410
0.152443
0.152443
0.153410
0.154055
0.152765
0.152765
0.151798
0.152443
0.152765
0.152443
0.152443
0.152765
0.153410
0.152443
0.152120
0.153733
0.154055
0.153088
0.152443
0.152120
0.153410
0.153410
0.151798
0.152443
0.151475
0.153410
0.152120
0.156312
0.151475
0.153410
0.152120
0.151798
0.151153
0.152443
0.152443
0.152443
0.151798
0.152120
0.153410
0.152765
0.151475
0.151475
0.152443
0.153410
0.151475
0.151798
0.152120
0.152443
0.155023
0.152120
0.152120
0.154055
0.152765
0.153088
0.153410
0.154055
0.153410
0.154055
0.153088
0.152765
0.153088
0.153733
0.153088
0.153088
0.153088
0.153410
0.154378
0.152120
0.151798
0.153733
0.153410
0.152765
0.152120
0.152443
0.152765
0.153410
0.153410
0.152120
0.152443
0.152765
0.152765
0.152120
0.152443
0.151475
0.157280
0.152120
0.151475
0.151798
0.152120
0.151798
0.152120
0.152120
0.152443
0.152765
0.152120
0.151798
0.153733
0.152443
0.151798
0.151798
0.153088
0.152120
0.152120
0.151475
0.152443
0.154055
0.152443
0.151153
0.151798
0.151798
0.152120
0.150830
0.151153
0.150830
0.152120
0.151798
0.151475
0.151798
0.153088
0.152765
0.152765
0.153088
0.153733
0.155023
0.152765
0.153410
0.154055
0.153733
0.154378
0.152120
0.152120
0.153410
0.153733
0.152765
0.153088
0.152120
0.153410
0.152443
0.152443
0.152120
0.152765
0.151798
0.152443
0.152120
0.152443
0.153410
0.152765
0.153410
0.153088
0.152765
0.153088
0.153410
0.153088
0.153088
0.153410
0.152765
0.153410
0.154055
0.153733
0.153733
0.153410
0.153410
0.153733
0.153088
0.153410
0.154055
0.153088
0.152765
0.153410
0.153733
0.153410
0.152765
0.153410
0.154055
0.154700
0.153410
0.153410
0.155023
0.154055
0.153410
0.153410
0.153410
0.153733
0.153733
0.152765
0.153088
0.153088
0.153410
0.151798
0.153733
0.151798
0.153088
0.154055
0.151153
0.151798
0.152765
0.152120
0.151798
0.150830
0.152765
0.152765
0.152443
0.152120
0.153410
0.153410
0.152765
0.152765
0.153410
0.153410
0.153410
0.153088
0.153410
0.152765
0.153410
0.154055
0.153733
0.153733
0.154055
0.153733
0.152443
0.153410
0.155345
0.153410
0.152765
0.153088
0.154055
0.153410
0.153088
0.153410
0.152765
0.153410
0.153410
0.153088
0.153410
0.153410
0.152765
0.153088
0.153410
0.152765
0.154055
0.153410
0.153410
0.153410
0.154055
0.152443
0.154055
0.153088
0.153088
0.152765
0.152765
0.155667
0.152765
0.154700
0.153410
0.151798
0.153733
0.152765
0.153088
0.153410
0.153088
0.153410
0.153410
0.152443
0.152765
0.152765
0.152120
0.152765
0.152443
0.151798
0.152443
0.152443
0.155345
0.153410
0.153088
0.152443
0.152443
0.152443
0.152120
0.151475
0.151798
0.152443
0.151475
0.151475
0.151798
0.151798
0.152120
0.152765
0.152120
0.152765
0.152765
0.152443
0.151798
0.151798
0.152765
0.153088
0.152120
0.153410
0.154378
0.153733
0.152765
0.152443
0.152765
0.153410
0.153088
0.153733
0.153410
0.152765
0.151798
0.152765
0.152765
0.153410
0.153410
0.152765
0.154055
0.154378
0.152765
0.154700
0.153088
0.154055
0.153410
0.153733
0.152120
0.153088
0.154055
0.154700
0.151798
0.153410
0.153733
0.157280
0.153088
0.152443
0.153088
0.154055
0.152443
0.152443
0.153410
0.153733
0.152765
0.153088
0.152443
0.154055
0.153733
0.153410
0.152120
0.153410
0.153410
0.152765
0.151798
0.151798
0.152765
0.154055
0.151798
0.152120
0.152120
0.152120
0.151475
0.152120
0.151798
0.151798
0.152120
0.151475
0.150830
0.151798
0.150830
0.149863
0.151153
0.151798
0.152443
0.151475
0.151798
0.151798
0.152120
0.151798
0.151153
0.152120
0.151475
0.151153
0.153088
0.151153
0.152120
0.153088
0.152443
0.152120
0.152120
0.152120
0.149218
0.153410
0.153088
0.154055
0.153410
0.152765
0.154378
0.153410
0.152765
0.152765
0.152765
0.152765
0.153088
0.153410
0.153733
0.152765
0.153410
0.152765
0.153410
0.153733
0.152765
0.153733
0.154378
0.153088
0.154378
0.152765
0.153410
0.153733
0.152765
0.152443
0.153410
0.152765
0.152765
0.153733
0.152765
0.152443
0.149540
0.153088
0.152443
0.152443
0.153410
0.152443
0.152120
0.151475
0.152443
0.152443
0.152120
0.152120
0.153088
0.152765
0.152765
0.152120
0.153410
0.151153
0.154055
0.153410
0.152765
0.152120
0.154055
0.151475
0.152120
0.151798
0.151798
0.152120
0.151153
0.150830
0.153088
0.152120
0.151798
0.151798
0.152443
0.152120
0.152443
0.151798
0.152443
0.153088
0.154055
0.152765
0.153088
0.153088
0.154378
0.153733
0.153088
0.153410
0.154700
0.153733
0.152765
0.152443
0.153088
0.153410
0.154055
0.153410
0.152765
0.153733
0.153733
0.153733
0.153733
0.154378
0.154055
0.153733
0.153733
0.154055
0.154700
0.153733
0.153733
0.153733
0.153733
0.154055
0.154055
0.151475
0.154055
0.154378
0.153410
0.153733
0.154378
0.154700
0.152443
0.154378
0.153733
0.154055
0.153733
0.153733
0.154055
0.153733
0.152120
0.153733
0.152765
0.153733
0.153088
0.153410
0.152765
0.152765
0.153088
0.152120
0.151798
0.152765
0.152120
0.152120
0.152120
0.151475
0.151798
0.152443
0.151475
0.151798
0.152120
0.149863
0.151153
0.152120
0.151798
0.152120
0.151475
0.151798
0.151798
0.152120
0.151153
0.152765
0.152443
0.151798
0.150508
0.152120
0.152120
0.152120
0.152120
0.152443
0.152443
0.153410
0.148896
0.152443
0.153088
0.154700
0.154055
0.152765
0.153733
0.154055
0.153733
0.153733
0.152443
0.152120
0.155345
0.153088
0.152765
0.153410
0.154055
0.153410
0.152765
0.153410
0.154055
0.154378
0.153088
0.152765
0.153410
0.153410
0.153088
0.152765
0.153088
0.153088
0.154055
0.152765
0.154055
0.154378
0.155023
0.153088
0.151798
0.153410
0.154055
0.152120
0.152765
0.152765
0.153733
0.153410
0.154055
0.152765
0.153733
0.153733
0.153410
0.153733
0.153733
0.152765
0.154378
0.152765
0.152443
0.152765
0.152120
0.148573
0.152443
0.152120
0.152443
0.152120
0.152120
0.151798
0.152120
0.152443
0.152120
0.152765
0.152765
0.152120
0.153733
0.152443
0.152443
0.154055
0.151475
0.152120
0.153088
0.152120
0.151798
0.152765
0.153088
0.151798
0.153088
0.154378
0.153410
0.153410
0.152765
0.153410
0.157602
0.153410
0.152765
0.153733
0.153410
0.154055
0.154378
0.153088
0.154700
0.155345
0.153733
0.152765
0.153733
0.153733
0.154700
0.153410
0.153410
0.154378
0.154700
0.154378
0.153733
0.157280
0.154055
0.154055
0.153733
0.152443
0.153410
0.153733
0.153410
0.153088
0.153410
0.154055
0.154378
0.153410
0.153410
0.153733
0.153733
0.153733
0.152443
0.154378
0.153410
0.152765
0.152765
0.153410
0.153410
0.152765
0.152120
0.153410
0.152765
0.152765
0.152765
0.152765
0.153410
0.153410
0.152765
0.152765
0.152443
0.155023
0.153088
0.152765
0.152120
0.153088
0.152120
0.153088
0.152443
0.152765
0.152443
0.153088
0.152120
0.152443
0.152120
0.152443
0.152443
0.152765
0.151798
0.153410
0.152443
0.153088
0.154700
0.151798
0.152443
0.153410
0.153088
0.153088
0.154055
0.153410
0.153733
0.153410
0.152765
0.154055
0.153088
0.154055
0.153410
0.153410
0.153410
0.154700
0.153410
0.153410
0.154378
0.154700
0.154378
0.153733
0.154378
0.155023
0.153733
0.154055
0.154055
0.153733
0.155345
0.153410
0.154055
0.155023
0.154055
0.153733
0.156312
0.153088
0.154378
0.154700
0.152765
0.153410
0.154378
0.153410
0.153410
0.152765
0.152765
0.154055
0.152765
0.152765
0.153733
0.153410
0.153088
0.152765
0.153088
0.152443
0.153088
0.153733
0.152120
0.152120
0.152120
0.151475
0.150830
0.151153
0.152765
0.151475
0.151153
0.150830
0.151798
0.152120
0.151475
0.151475
0.152765
0.152120
0.152443
0.151798
0.151153
0.152120
0.152443
0.151153
0.152443
0.152443
0.152765
0.153088
0.153088
0.152443
0.153410
0.152120
0.153088
0.154055
0.153410
0.153410
0.154055
0.155667
0.153410
0.152120
0.153410
0.153733
0.153733
0.153410
0.153733
0.154055
0.154055
0.154055
0.153410
0.153410
0.152765
0.153733
0.154378
0.153733
0.154378
0.154378
0.153088
0.154055
0.156957
0.153410
0.153088
0.153088
0.154055
0.154055
0.154378
0.153410
0.154055
0.153733
0.153733
0.154378
0.154378
0.153733
0.155345
0.153410
0.153410
0.154055
0.153733
0.153410
0.152443
0.153410
0.154055
0.153410
0.153410
0.153733
0.153733
0.153733
0.153088
0.153088
0.154055
0.153410
0.153733
0.152765
0.153410
0.153410
0.150830
0.153410
0.154378
0.155345
0.153410
0.154378
0.153733
0.154378
0.155345
0.154378
0.153410
0.153410
0.153088
0.154700
0.153733
0.153088
0.153733
0.154700
0.153088
0.153088
0.153410
0.149218
0.154055
0.154055
0.153410
0.154378
0.154055
0.154055
0.154055
0.153410
0.153733
0.154378
0.153733
0.154055
0.153733
0.154055
0.153733
0.154378
0.153733
0.155023
0.153410
0.153733
0.153733
0.154055
0.153733
0.154055
0.154055
0.154378
0.154055
0.154700
0.154378
0.153410
0.152765
0.154378
0.154055
0.154055
0.153410
0.150185
0.154055
0.154055
0.153088
0.153410
0.153410
0.154055
0.153733
0.153088
0.154378
0.154378
0.153733
0.153733
0.153410
0.153733
0.153733
0.153410
0.152120
0.153733
0.153733
0.153410
0.150830
0.152765
0.152120
0.152765
0.151475
0.152443
0.152765
0.153733
0.152765
0.151798
0.153410
0.154055
0.153733
0.153410
0.153088
0.153410
0.153410
0.153088
0.151798
0.152765
0.154055
0.153410
0.152443
0.153410
0.154055
0.154055
0.153733
0.153088
0.153410
0.153733
0.154055
0.154055
0.153733
0.153410
0.154055
0.152765
0.152765
0.154700
0.153733
0.153733
0.154378
0.153410
0.154378
0.153733
0.152443
0.152765
0.154055
0.153088
0.154700
0.153088
0.153410
0.155023
0.153733
0.154055
0.153733
0.155023
0.153410
0.153088
0.153410
0.154378
0.153733
0.154055
0.153410
0.154378
0.155023
0.154378
0.153733
0.153410
0.154378
0.153410
0.154378
0.152765
0.153410
0.154055
0.152765
0.152120
0.153733
0.153088
0.153733
0.154055
0.154055
0.154378
0.153410
0.153088
0.153088
0.153088
0.153410
0.152443
0.153410
0.152765
0.154055
0.153410
0.153088
