Samp. Freq.(Hz)   Sample#   Pulse Length (ms)
10000.000000	10000.000000	100.000000
	
Voltage(V) 
0.159215
0.159215
0.160182
0.159215
0.159860
0.160505
0.158892
0.158892
0.159860
0.159215
0.159215
0.159215
0.158570
0.159215
0.158570
0.157925
0.159537
0.159215
0.158570
0.159215
0.158247
0.158570
0.159215
0.159537
0.158570
0.158892
0.158570
0.159215
0.158892
0.158247
0.158570
0.159215
0.159215
0.158247
0.158892
0.158247
0.158892
0.157925
0.158570
0.157925
0.159215
0.159215
0.158892
0.158892
0.160182
0.158570
0.159860
0.158570
0.160182
0.159215
0.158892
0.158892
0.160182
0.158892
0.158570
0.158892
0.159537
0.159215
0.162762
0.159537
0.160827
0.160505
0.159215
0.159860
0.160827
0.160182
0.160827
0.159537
0.165342
0.161150
0.159860
0.159537
0.159860
0.161150
0.160182
0.159215
0.160505
0.160505
0.160182
0.159860
0.159860
0.160182
0.161150
0.160505
0.159215
0.160182
0.159215
0.159215
0.160182
0.159537
0.160827
0.160182
0.159215
0.159537
0.161794
0.159860
0.159860
0.161150
0.160827
0.159860
0.159860
0.160182
0.161150
0.160182
0.160182
0.160505
0.160827
0.160505
0.159860
0.159537
0.160182
0.160182
0.159860
0.159860
0.159860
0.160505
0.158892
0.159537
0.159860
0.160827
0.157925
0.159537
0.162117
0.160182
0.159537
0.159215
0.159537
0.160505
0.158892
0.159860
0.159537
0.160182
0.158247
0.159860
0.159537
0.161150
0.160505
0.159537
0.160182
0.160505
0.160182
0.159860
0.159860
0.162439
0.160827
0.160182
0.159860
0.161150
0.161150
0.159860
0.160182
0.160827
0.160505
0.160182
0.159860
0.161794
0.160827
0.160182
0.159537
0.161472
0.160827
0.160505
0.159860
0.160505
0.160827
0.161150
0.160182
0.161472
0.161150
0.160827
0.159860
0.160182
0.159860
0.159860
0.159537
0.160505
0.159860
0.160505
0.159537
0.159537
0.160182
0.160827
0.160182
0.161150
0.160827
0.161150
0.160505
0.160505
0.160827
0.161794
0.161150
0.161472
0.162117
0.162117
0.161472
0.162117
0.162117
0.162762
0.162439
0.161794
0.161794
0.161794
0.160505
0.155667
0.151475
0.147606
0.144703
0.138899
0.135997
0.132772
0.129547
0.125677
0.123098
0.120195
0.117616
0.114713
0.112778
0.111166
0.108909
0.106974
0.103427
0.102782
0.100847
0.100524
0.097622
0.096655
0.096332
0.094397
0.093108
0.090850
0.090850
0.090528
0.088915
0.088593
0.088270
0.086981
0.086336
0.085691
0.084723
0.084723
0.085046
0.083111
0.082788
0.082143
0.081821
0.081821
0.080531
0.080531
0.081821
0.079886
0.080209
0.079564
0.079886
0.078919
0.079241
0.078274
0.079241
0.077951
0.077951
0.077629
0.077951
0.077951
0.077629
0.077306
0.077629
0.077629
0.076984
0.076984
0.076661
0.076984
0.076984
0.075694
0.076339
0.076661
0.076016
0.076016
0.076016
0.076339
0.075694
0.075694
0.075694
0.076339
0.076661
0.075049
0.075371
0.076339
0.075371
0.075049
0.076339
0.076016
0.075694
0.075049
0.074727
0.076339
0.076339
0.075049
0.076016
0.075049
0.076339
0.076016
0.074082
0.075694
0.076339
0.075049
0.075049
0.075049
0.076016
0.075694
0.074404
0.074727
0.075371
0.075371
0.075049
0.074727
0.075049
0.076016
0.075371
0.075049
0.074727
0.076016
0.075049
0.074727
0.075049
0.075371
0.076016
0.074082
0.075371
0.076339
0.075371
0.075049
0.075694
0.075371
0.075049
0.075049
0.074404
0.076016
0.075049
0.074404
0.074404
0.074404
0.075694
0.074404
0.074082
0.075049
0.075049
0.073759
0.074082
0.075371
0.075371
0.075371
0.075049
0.075371
0.076016
0.076016
0.075049
0.076016
0.076339
0.076339
0.076016
0.076016
0.076339
0.077306
0.076016
0.076339
0.076984
0.076984
0.075694
0.076016
0.076984
0.077629
0.075371
0.076016
0.076984
0.077306
0.076984
0.075694
0.075694
0.077306
0.076016
0.076016
0.076661
0.076339
0.076016
0.076016
0.075049
0.076016
0.076661
0.075694
0.076016
0.075694
0.075049
0.075049
0.075049
0.076016
0.075694
0.075371
0.074727
0.075694
0.075049
0.075694
0.075049
0.074727
0.075049
0.075049
0.074727
0.074727
0.075371
0.075049
0.075371
0.074404
0.075371
0.075049
0.074727
0.074404
0.074404
0.074082
0.075371
0.073437
0.074727
0.074727
0.074727
0.074404
0.075049
0.074082
0.075049
0.074727
0.074404
0.074082
0.074727
0.073759
0.074404
0.074082
0.075049
0.074404
0.074082
0.073759
0.075049
0.075049
0.073437
0.073759
0.073759
0.074404
0.074727
0.073114
0.073759
0.074404
0.072792
0.074082
0.073759
0.074082
0.074404
0.074082
0.073759
0.074082
0.074727
0.073437
0.073759
0.074404
0.075049
0.072792
0.073437
0.073759
0.074404
0.073437
0.073759
0.074727
0.075049
0.073759
0.073759
0.075371
0.075371
0.074082
0.074082
0.074082
0.075371
0.075049
0.074082
0.074082
0.075371
0.075049
0.074404
0.074727
0.075049
0.075371
0.074082
0.074727
0.074404
0.075371
0.074404
0.074404
0.074727
0.075694
0.074404
0.073759
0.074727
0.075049
0.075371
0.074404
0.074404
0.074404
0.074727
0.073114
0.074082
0.074404
0.075049
0.074404
0.074082
0.074727
0.073759
0.074082
0.074727
0.075371
0.075371
0.074082
0.074727
0.074404
0.076016
0.074727
0.074082
0.075694
0.075371
0.075371
0.075049
0.075694
0.075694
0.076339
0.075371
0.075694
0.076016
0.076661
0.075371
0.076339
0.076016
0.076661
0.076339
0.076016
0.076339
0.076339
0.076984
0.076016
0.077306
0.076984
0.076016
0.076016
0.076016
0.075049
0.076339
0.075371
0.075049
0.076339
0.075694
0.075371
0.075371
0.074727
0.075371
0.076016
0.075049
0.074727
0.075371
0.075049
0.075049
0.076016
0.074727
0.075371
0.074404
0.075049
0.074727
0.075371
0.074727
0.075049
0.074404
0.075694
0.075371
0.074727
0.074727
0.075694
0.075049
0.075049
0.075371
0.074727
0.075371
0.074727
0.075371
0.075694
0.074082
0.074727
0.074727
0.075049
0.075694
0.075049
0.074727
0.074404
0.076339
0.074727
0.074082
0.075049
0.075049
0.075371
0.074082
0.073759
0.075371
0.075371
0.075049
0.074404
0.074727
0.075371
0.074404
0.074082
0.074404
0.075694
0.073437
0.074404
0.075371
0.074727
0.074404
0.074082
0.074404
0.075049
0.074082
0.073437
0.073759
0.074727
0.074404
0.074404
0.074404
0.073759
0.075371
0.073437
0.074082
0.075371
0.075049
0.073759
0.074404
0.074082
0.075049
0.074404
0.074082
0.074082
0.075371
0.074082
0.074727
0.074727
0.075371
0.075049
0.073759
0.074727
0.074727
0.074082
0.073759
0.075371
0.074727
0.075049
0.075049
0.074727
0.075694
0.074082
0.074727
0.074404
0.074404
0.075049
0.075049
0.074082
0.074727
0.075371
0.074082
0.074082
0.075694
0.075049
0.075049
0.074404
0.074727
0.075049
0.074082
0.074082
0.075049
0.075049
0.075049
0.075371
0.074727
0.074404
0.075049
0.074727
0.075049
0.075049
0.074082
0.074727
0.074404
0.074404
0.074727
0.075049
0.074404
0.075049
0.075049
0.074727
0.075049
0.075049
0.075371
0.075371
0.076016
0.075371
0.075371
0.075694
0.075694
0.075371
0.075371
0.076016
0.076016
0.075371
0.076016
0.075694
0.076016
0.076016
0.075049
0.075371
0.076016
0.075049
0.075049
0.074404
0.075371
0.075049
0.074727
0.075049
0.075371
0.075694
0.074082
0.074727
0.075371
0.076016
0.074727
0.074082
0.075049
0.076016
0.074404
0.075049
0.074404
0.074727
0.075049
0.074082
0.075049
0.075371
0.074404
0.074404
0.075371
0.075049
0.075049
0.074727
0.074727
0.075371
0.075371
0.073759
0.074404
0.075694
0.075371
0.074727
0.074082
0.075694
0.076339
0.075049
0.074404
0.076016
0.075694
0.075371
0.074404
0.075049
0.075371
0.075049
0.073759
0.075049
0.075049
0.076016
0.075049
0.073759
0.074727
0.075049
0.074082
0.074727
0.074404
0.075694
0.074727
0.074082
0.075049
0.075371
0.075049
0.073759
0.075371
0.075049
0.074404
0.074404
0.074404
0.075694
0.074727
0.074404
0.074727
0.074727
0.074082
0.075049
0.075049
0.073759
0.074727
0.074727
0.074082
0.075371
0.074727
0.074404
0.074082
0.074082
0.075049
0.075049
0.074082
0.074727
0.074404
0.074727
0.074404
0.074082
0.074727
0.074082
0.074404
0.073759
0.074082
0.074727
0.074404
0.073114
0.074727
0.074404
0.073114
0.074082
0.074404
0.073759
0.074727
0.075049
0.074082
0.074404
0.074727
0.074082
0.074404
0.074082
0.074082
0.075694
0.074082
0.074082
0.074727
0.074404
0.073437
0.074082
0.074727
0.074727
0.074727
0.074082
0.073759
0.075371
0.075694
0.074404
0.075049
0.075049
0.075049
0.074404
0.075049
0.074404
0.075694
0.074404
0.075694
0.074404
0.076016
0.075694
0.075371
0.075049
0.075694
0.076339
0.076661
0.074727
0.076339
0.076016
0.075371
0.075371
0.076339
0.076661
0.075694
0.075371
0.075371
0.076016
0.076016
0.074404
0.075694
0.076016
0.075694
0.075049
0.075049
0.075694
0.076339
0.075049
0.074727
0.075371
0.076016
0.074404
0.075049
0.075049
0.076661
0.075049
0.074404
0.075049
0.076016
0.075049
0.074082
0.075694
0.075371
0.075371
0.074404
0.074727
0.074404
0.075694
0.073759
0.074727
0.074404
0.075049
0.075049
0.074727
0.074727
0.075049
0.074082
0.074404
0.075371
0.075371
0.074404
0.074082
0.075049
0.074727
0.075049
0.074727
0.074727
0.075694
0.074727
0.074404
0.075371
0.075049
0.075049
0.075371
0.074727
0.074404
0.075049
0.075371
0.073437
0.074727
0.074727
0.074727
0.074404
0.074727
0.075049
0.075049
0.074727
0.074404
0.074727
0.075049
0.075371
0.074727
0.075049
0.074727
0.075371
0.074727
0.075049
0.074082
0.075371
0.075049
0.074404
0.075049
0.075371
0.075049
0.074727
0.074727
0.075371
0.075049
0.075049
0.073759
0.074404
0.075694
0.074082
0.074404
0.074404
0.075371
0.074727
0.074082
0.074404
0.076016
0.074727
0.074404
0.074727
0.075371
0.075049
0.075371
0.074404
0.075049
0.075371
0.074082
0.074404
0.075371
0.075049
0.074404
0.074404
0.075049
0.075371
0.074404
0.074082
0.075049
0.075371
0.075049
0.075049
0.074404
0.076016
0.075049
0.073759
0.075049
0.076661
0.074404
0.074082
0.074404
0.074727
0.075049
0.073759
0.074082
0.074082
0.076016
0.074404
0.074404
0.074727
0.075694
0.074727
0.074082
0.075049
0.075371
0.075049
0.074404
0.075371
0.076661
0.076016
0.073759
0.076016
0.076339
0.076661
0.076016
0.076661
0.076016
0.076984
0.075694
0.074727
0.076339
0.076339
0.074404
0.075694
0.075694
0.076016
0.075371
0.074727
0.075049
0.076339
0.075049
0.074727
0.075371
0.075371
0.075049
0.075049
0.075049
0.075049
0.075371
0.074404
0.075049
0.075049
0.075694
0.075371
0.075371
0.074727
0.075371
0.074404
0.074404
0.075694
0.075371
0.075049
0.073759
0.074727
0.074727
0.075049
0.074727
0.075049
0.075694
0.075049
0.075371
0.075049
0.074727
0.075371
0.074727
0.074727
0.075371
0.075049
0.074404
0.074727
0.074727
0.074727
0.074727
0.074727
0.074404
0.074404
0.075049
0.074404
0.074404
0.074404
0.075049
0.074727
0.074404
0.074404
0.074727
0.075049
0.075371
0.073759
0.075371
0.075049
0.073759
0.074404
0.074727
0.075371
0.074404
0.074082
0.074082
0.074727
0.073437
0.073759
0.074082
0.074404
0.073759
0.074404
0.074404
0.075371
0.075049
0.073759
0.074727
0.075694
0.075371
0.073759
0.075049
0.074727
0.075371
0.073759
0.074404
0.074727
0.075694
0.074727
0.074727
0.075049
0.075694
0.073759
0.073759
0.074727
0.074727
0.074082
0.073759
0.073759
0.075694
0.074404
0.074082
0.074727
0.075371
0.074404
0.074082
0.074404
0.074727
0.074404
0.074404
0.075049
0.074404
0.073759
0.075371
0.074404
0.074727
0.074727
0.074404
0.074082
0.074727
0.074404
0.074082
0.074727
0.074727
0.074404
0.074727
0.074082
0.074404
0.074082
0.071824
0.073759
0.074404
0.074404
0.075694
0.075049
0.078596
0.084401
0.088915
0.092785
0.096977
0.097622
0.103427
0.107619
0.110199
0.113101
0.115681
0.119228
0.120840
0.122453
0.126645
0.127935
0.129225
0.131159
0.134384
0.135674
0.136964
0.137286
0.139866
0.141479
0.142446
0.141801
0.144058
0.144058
0.144703
0.145993
0.147928
0.148573
0.148896
0.149218
0.149540
0.151798
0.152120
0.150830
0.151798
0.153410
0.152765
0.153733
0.153410
0.154700
0.155667
0.154378
0.154055
0.155345
0.155023
0.153410
0.155667
0.155990
0.155667
0.157602
0.155667
0.156957
0.157602
0.156635
0.156312
0.156957
0.161472
0.157602
0.156957
0.156635
0.156957
0.157602
0.157925
0.157280
0.157280
0.157602
0.157925
0.158570
0.157280
0.157602
0.157602
0.157602
0.157602
0.157280
0.157925
0.157925
0.157280
0.157280
0.159537
0.157925
0.157280
0.157602
0.158247
0.157925
0.157280
0.157602
0.157280
0.158247
0.156957
0.159215
0.157925
0.158247
0.157280
0.156635
0.157280
0.157280
0.156957
0.156957
0.157602
0.157925
0.158570
0.155990
0.157280
0.157602
0.157925
0.156635
0.157602
0.156957
0.157925
0.156957
0.156635
0.156312
0.157602
0.156957
0.156957
0.157280
0.156957
0.157602
0.157280
0.157280
0.157602
0.158247
0.157280
0.157280
0.157602
0.157280
0.157280
0.156312
0.157602
0.158247
0.157280
0.157280
0.157602
0.157280
0.156635
0.156957
0.157280
0.156635
0.157925
0.157602
0.156312
0.157280
0.157602
0.156635
0.155990
0.156957
0.156957
0.156312
0.155667
0.156312
0.155990
0.156635
0.155990
0.155345
0.156312
0.157280
0.154700
0.155667
0.156957
0.156957
0.155023
0.156635
0.155667
0.156957
0.155345
0.156312
0.154700
0.155990
0.155667
0.155990
0.155345
0.155667
0.155990
0.155345
0.154378
0.155990
0.155023
0.155667
0.155667
0.155023
0.155667
0.156635
0.155345
0.155667
0.156635
0.155990
0.155667
0.156312
0.155990
0.156312
0.155990
0.155990
0.155345
0.156957
0.156957
0.156312
0.155990
0.156957
0.156635
0.155667
0.156635
0.156957
0.156957
0.156635
0.157602
0.155990
0.157280
0.156957
0.156312
0.156635
0.157280
0.156312
0.156635
0.157602
0.157602
0.157280
0.156635
0.156957
0.157602
0.157602
0.156635
0.157602
0.157602
0.157925
0.157925
0.156312
0.157602
0.158892
0.157280
0.156957
0.157602
0.157925
0.157280
0.157280
0.157602
0.157280
0.157925
0.157280
0.157280
0.157602
0.157602
0.156635
0.152120
0.158247
0.157280
0.156635
0.156312
0.156957
0.155990
0.156957
0.157280
0.156635
0.156957
0.155023
0.156635
0.155667
0.156957
0.156635
0.155990
0.155990
0.156957
0.156312
0.156957
0.156635
0.161472
0.156312
0.157925
0.156312
0.157925
0.157280
0.157602
0.156312
0.157280
0.157280
0.157925
0.160505
0.157602
0.157602
0.158247
0.157925
0.157280
0.157280
0.157280
0.157602
0.157925
0.157280
0.160827
0.159215
0.157602
0.157280
0.158247
0.157925
0.158247
0.157602
0.157925
0.157280
0.157925
0.157280
0.158570
0.157602
0.158247
0.157925
0.158247
0.157602
0.159537
0.157280
0.157925
0.153410
0.157280
0.157925
0.158247
0.157602
0.157280
0.157280
0.158570
0.157280
0.157280
0.157925
0.154378
0.157602
0.157602
0.158247
0.156957
0.156635
0.157925
0.158247
0.157602
0.157280
0.157602
0.157280
0.157280
0.156635
0.157602
0.156635
0.157602
0.157280
0.157280
0.156957
0.157602
0.156957
0.159215
0.157925
0.157602
0.156957
0.156312
0.156957
0.157602
0.156957
0.156957
0.158247
0.157280
0.159537
0.157280
0.157925
0.157602
0.157925
0.156635
0.157925
0.156635
0.156957
0.156957
0.157280
0.158570
0.156957
0.157602
0.157602
0.157602
0.156957
0.158247
0.157602
0.157280
0.157602
0.157925
0.158247
0.157280
0.157280
0.157925
0.158892
0.156635
0.157280
0.157925
0.158570
0.157925
0.158247
0.157925
0.157925
0.157280
0.157925
0.158247
0.158892
0.156957
0.158570
0.158247
0.158247
0.158247
0.157602
0.157925
0.158570
0.158247
0.158247
0.158570
0.158570
0.158892
0.157925
0.158570
0.158892
0.158570
0.157925
0.158570
0.157925
0.157925
0.158247
0.157602
0.157280
0.157602
0.158247
0.156635
0.157602
0.157602
0.157925
0.157602
0.157925
0.157602
0.157925
0.156957
0.156957
0.157925
0.158570
0.156957
0.157602
0.156635
0.157602
0.157602
0.157602
0.156957
0.157280
0.158570
0.157280
0.156635
0.158247
0.157925
0.157280
0.156312
0.157280
0.158570
0.157280
0.157280
0.158247
0.157280
0.157925
0.157925
0.157602
0.157602
0.157925
0.157925
0.158892
0.157602
0.157602
0.157280
0.157602
0.157925
0.157925
0.157602
0.156635
0.158570
0.157602
0.156957
0.157280
0.157602
0.157925
0.157602
0.157280
0.157602
0.157280
0.158570
0.158570
0.156957
0.157602
0.157280
0.157925
0.156312
0.157280
0.156957
0.156957
0.156957
0.157280
0.157280
0.157602
0.156312
0.157602
0.156312
0.157602
0.156957
0.156312
0.157602
0.157280
0.156957
0.156635
0.156635
0.157925
0.156957
0.155345
0.157280
0.156635
0.157280
0.155990
0.156312
0.156635
0.156312
0.156312
0.155990
0.155990
0.156312
0.155990
0.157280
0.155990
0.158247
0.157602
0.156957
0.156957
0.157925
0.156957
0.157280
0.156312
0.157602
0.156312
0.157602
0.155990
0.157925
0.157280
0.157925
0.157280
0.157280
0.156957
0.159215
0.156957
0.157280
0.156635
0.158247
0.158892
0.157602
0.156957
0.158570
0.156635
0.158247
0.157925
0.158247
0.156957
0.154700
0.157925
0.157925
0.157602
0.157280
0.157602
0.158570
0.157925
0.158570
0.157925
0.157602
0.154055
0.157925
0.158247
0.157925
0.158570
0.159860
0.157280
0.158247
0.158892
0.157602
0.157602
0.161794
0.157925
0.158892
0.157602
0.158570
0.157925
0.158247
0.158247
0.158570
0.157602
0.157925
0.161472
0.156957
0.157280
0.158247
0.157280
0.156312
0.156957
0.158247
0.158247
0.157280
0.156635
0.158570
0.157925
0.157925
0.157925
0.157925
0.157602
0.156957
0.157925
0.157280
0.157280
0.152120
0.157925
0.157925
0.158570
0.158570
0.157280
0.157602
0.158570
0.158247
0.157602
0.157602
0.159860
0.159537
0.157602
0.158247
0.158892
0.157925
0.159537
0.157925
0.158247
0.158247
0.158570
0.161150
0.158247
0.158247
0.158892
0.158892
0.158892
0.157925
0.158247
0.158570
0.157280
0.157925
0.159860
0.158892
0.158247
0.158570
0.159860
0.158892
0.158570
0.157925
0.157925
0.158892
0.158570
0.158247
0.157925
0.158247
0.159215
0.157602
0.157280
0.157602
0.157602
0.157925
0.157602
0.157925
0.157925
0.157280
0.158570
0.156957
0.157925
0.157280
0.157602
0.158247
0.157280
0.156635
0.157925
0.157602
0.157280
0.157602
0.156957
0.156635
0.157925
0.157280
0.156635
0.156957
0.155990
0.156957
0.157280
0.156312
0.156957
0.157280
0.157280
0.157280
0.156635
0.156957
0.157602
0.156957
0.158247
0.158247
0.157280
0.157280
0.157280
0.158247
0.158247
0.156635
0.156957
0.157925
0.158892
0.157925
0.157280
0.157602
0.157925
0.159537
0.156312
0.157925
0.157925
0.158570
0.158247
0.157602
0.157925
0.158892
0.157925
0.158570
0.157925
0.158570
0.158570
0.158247
0.158892
0.158570
0.158570
0.157280
0.158570
0.159537
0.157925
0.158570
0.157602
0.158570
0.158247
0.158570
0.157602
0.158247
0.158892
0.158570
0.157602
0.157925
0.159537
0.158247
0.158892
0.157925
0.158247
0.158570
0.157280
0.157602
0.158247
0.158247
0.157602
0.158247
0.158247
0.158247
0.157925
0.156635
0.157925
0.160182
0.157602
0.157280
0.157925
0.157602
0.158247
0.156957
0.156957
0.158247
0.157925
0.158247
0.157280
0.157280
0.158247
0.158892
0.158570
0.157602
0.158247
0.157925
0.157280
0.158570
0.157925
0.158247
0.155667
0.158570
0.158570
0.158247
0.157280
0.157602
0.157602
0.159215
0.157925
0.157602
0.158247
0.161472
0.158247
0.157925
0.157602
0.158570
0.158247
0.158570
0.158247
0.158892
0.157602
0.156957
0.163084
0.158247
0.158570
0.157925
0.158570
0.158892
0.157925
0.157280
0.157925
0.157925
0.159215
0.155345
0.156957
0.157280
0.158892
0.157925
0.158247
0.158570
0.157280
0.157925
0.157925
0.157280
0.156957
0.157925
0.156957
0.156957
0.153088
0.157280
0.156957
0.156312
0.157280
0.162762
0.162439
0.156635
0.156957
0.157602
0.157925
0.156635
0.156635
0.157280
0.157602
0.156957
0.156957
0.157280
0.157925
0.157602
0.158570
0.156635
0.157280
0.156635
0.158247
0.157280
0.157280
0.157280
0.156957
0.158247
0.157280
0.157280
0.156635
0.158570
0.158570
0.157925
0.158247
0.156957
0.157925
0.159215
0.156635
0.157280
0.157925
0.157925
0.159215
0.156635
0.157925
0.158570
0.158570
0.157925
0.159215
0.158247
0.158570
0.158247
0.158892
0.156957
0.158247
0.158247
0.158247
0.158570
0.158892
0.158570
0.157925
0.157602
0.159215
0.158892
0.158570
0.158570
0.157925
0.159537
0.158247
0.158570
0.158247
0.158570
0.158247
0.158892
0.157925
0.158570
0.158570
0.157925
0.157602
0.158247
0.158570
0.158247
0.159537
0.157925
0.158570
0.158247
0.157280
0.158892
0.158247
0.157602
0.157925
0.157602
0.159537
0.157925
0.156957
0.157602
0.157925
0.157925
0.156635
0.158570
0.157280
0.157602
0.157602
0.157280
0.156957
0.158247
0.156957
0.157602
0.157602
0.158570
0.156957
0.157280
0.158247
0.158892
0.158570
0.156957
0.156957
0.158570
0.158247
0.157925
0.157602
0.157602
0.159215
0.157602
0.156635
0.158570
0.158570
0.158247
0.156957
0.157602
0.158892
0.157925
0.158570
0.156957
0.157280
0.157925
0.158570
0.158892
0.157280
0.158892
0.157602
0.157602
0.158247
0.158570
0.158570
0.157925
0.153733
0.159215
0.157925
0.158570
0.157925
0.157602
0.158570
0.158247
0.158247
0.157602
0.157925
0.158892
0.157280
0.157602
0.156957
0.157925
0.157602
0.157602
0.157280
0.156957
0.156635
0.158247
0.160827
0.157280
0.157280
0.156635
0.157602
0.157280
0.156957
0.156312
0.156312
0.157925
0.156957
0.159537
0.156635
0.156635
0.157602
0.155345
0.157280
0.156635
0.157280
0.157602
0.157602
0.157602
0.157280
0.157280
0.157602
0.157280
0.158247
0.156957
0.157602
0.156957
0.157602
0.156635
0.155345
0.157602
0.158892
0.158247
0.157280
0.156957
0.158247
0.159215
0.157602
0.157280
0.157925
0.160505
0.159860
0.157280
0.158247
0.158247
0.158892
0.158570
0.158247
0.157602
0.158247
0.157925
0.160827
0.157280
0.159860
0.157925
0.158570
0.159537
0.159215
0.158892
0.158570
0.158247
0.158892
0.158892
0.158247
0.158570
0.158247
0.158247
0.158892
0.158247
0.159215
0.158892
0.158892
0.158247
0.158892
0.158247
0.158892
0.158570
0.158892
0.159215
0.158247
0.158247
0.158570
0.158892
0.159215
0.158892
0.158570
0.159537
0.159215
0.157602
0.158570
0.158892
0.159215
0.157602
0.156957
0.157925
0.159215
0.159215
0.156635
0.158247
0.158247
0.158892
0.158570
0.158570
0.158247
0.159215
0.158247
0.158570
0.159215
0.159215
0.159215
0.158247
0.158247
0.159215
0.158892
0.158247
0.158892
0.158892
0.159215
0.158892
0.158247
0.159215
0.159537
0.159537
0.157602
0.159215
0.158892
0.159215
0.158570
0.158892
0.158570
0.159537
0.158247
0.158247
0.158892
0.159537
0.158570
0.157925
0.158892
0.159537
0.158892
0.158892
0.158892
0.159537
0.159215
0.157925
0.158892
0.159215
0.157925
0.158247
0.158892
0.158570
0.158892
0.159215
0.157602
0.157925
0.158570
0.158247
0.158247
0.158247
0.158247
0.158892
0.157280
0.157280
0.157602
0.158570
0.157602
0.157925
0.157280
0.157602
0.156957
0.157280
0.154055
0.157925
0.157280
0.157280
0.157602
0.157925
0.157280
0.157602
0.156957
0.157602
0.157925
0.155990
0.157925
0.158570
0.158892
0.158247
0.157602
0.158892
0.158892
0.158570
0.157602
0.157925
0.162439
0.158247
0.157602
0.158247
0.157925
0.157925
0.158247
0.157602
0.157925
0.158892
0.157602
0.157925
0.158247
0.158892
0.158892
0.158570
0.158247
0.158570
0.160182
0.157925
0.158570
0.155023
0.157925
0.157925
0.158570
0.158247
0.159860
0.158247
0.158570
0.159215
0.158247
0.157925
0.163729
0.159537
0.159215
0.159215
0.158570
0.158247
0.159537
0.158570
0.158892
0.159215
0.158247
0.161150
0.158892
0.158570
0.158247
0.159215
0.159537
0.159215
0.158892
0.158892
0.159537
0.158247
0.158892
0.158570
0.159537
0.158570
0.158570
0.158892
0.160505
0.158570
0.158892
0.159537
0.159215
0.158247
0.158247
0.158570
0.159215
0.158570
0.157925
0.158247
0.159215
0.158570
0.158247
0.158247
0.159537
0.160182
0.158247
0.158892
0.159860
0.159215
0.158570
0.159537
0.159215
0.159537
0.158892
0.158247
0.159537
0.159537
0.158570
0.158892
0.159215
0.158892
0.159537
0.157602
0.159537
0.159537
0.158892
0.158570
0.158570
0.158247
0.158892
0.158247
0.159215
0.158892
0.158570
0.159537
0.158892
0.158570
0.158570
0.158892
0.158892
0.159215
0.158570
0.158570
0.158570
0.158247
0.159215
0.158892
0.158570
0.158247
0.158570
0.158570
0.157925
0.157925
0.157925
0.158892
0.157925
0.157925
0.157925
0.157925
0.157925
0.157925
0.157602
0.158570
0.158247
0.157925
0.158247
0.157280
0.158570
0.157602
0.157602
0.157602
0.157280
0.157602
0.157602
0.157602
0.157602
0.158247
0.156635
0.156957
0.158892
0.158247
0.156957
0.157280
0.157280
0.158570
0.157602
0.157602
0.157602
0.158247
0.157925
0.161472
0.158570
0.157925
0.157602
0.157602
0.158247
0.157925
0.158247
0.158247
0.158247
0.157925
0.161150
0.157925
0.158247
0.158570
0.158892
0.159215
0.158570
0.158570
0.158892
0.158247
0.158247
0.159860
0.159537
0.159215
0.158247
0.159215
0.158570
0.158247
0.158892
0.160182
0.159215
0.157602
0.158247
0.158247
0.158570
0.159215
0.158570
0.158892
0.158892
0.159215
0.159215
0.159215
0.161472
0.159215
0.159537
0.158892
0.158570
0.159215
0.159860
0.158247
0.159215
0.158892
0.159215
0.158570
0.159860
0.158892
0.159860
0.159860
0.158570
0.158892
0.159537
0.159537
0.158892
0.158570
0.159215
0.159537
0.157602
0.157925
0.158892
0.159215
0.158247
0.158570
0.158570
0.158570
0.158570
0.158570
0.159537
0.159537
0.159860
0.158247
0.158892
0.158570
0.159860
0.158247
0.158892
0.158892
0.158892
0.158570
0.158892
0.159537
0.159860
0.158570
0.158892
0.159537
0.160505
0.159537
0.158247
0.158570
0.160182
0.159215
0.158570
0.159215
0.158892
0.159537
0.159215
0.158892
0.159860
0.158892
0.158570
0.159215
0.159537
0.159860
0.158570
0.159215
0.158892
0.159537
0.160182
0.158570
0.159537
0.159537
0.159215
0.158570
0.159215
0.159215
0.160505
0.158570
0.158892
0.159215
0.158570
0.157602
0.158247
0.158570
0.159537
0.158570
0.157925
0.158247
0.158570
0.158247
0.158570
0.158247
0.158247
0.158892
0.157925
0.158247
0.158570
0.158570
0.157925
0.157925
0.157602
0.158570
0.157925
0.157602
0.157280
0.157925
0.157602
0.157925
0.156957
0.158247
0.157925
0.157602
0.157925
0.158247
0.158247
0.158892
0.158247
0.158892
0.159215
0.157280
0.158570
0.159215
0.158247
0.157925
0.158892
0.162439
0.159860
0.159215
0.157925
0.157925
0.158892
0.158570
0.158892
0.158570
0.158570
0.159215
0.161472
0.158892
0.159215
0.159860
0.159215
0.159860
0.158892
0.158892
0.158570
0.159860
0.156312
0.159215
0.158892
0.159215
0.158892
0.159537
0.159537
0.158570
0.160182
0.160505
0.159537
0.162439
0.160182
0.159215
0.160182
0.158570
0.159860
0.160182
0.159860
0.159215
0.159860
0.158892
0.160827
0.159860
0.158570
0.159860
0.159860
0.159537
0.158892
0.159537
0.159860
0.160505
0.158570
0.158892
0.159860
0.159860
0.159215
0.159537
0.159537
0.159537
0.159215
0.157925
0.158570
0.159860
0.159215
0.157602
0.158892
0.158570
0.159537
0.158247
0.159215
0.158570
0.159537
0.158892
0.158570
0.158570
0.160182
0.158247
0.159860
0.159860
0.159537
0.158892
0.158570
0.158570
0.159860
0.160505
0.159215
0.159860
0.160505
0.159215
0.158570
0.159215
0.159537
0.160182
0.159215
0.159215
0.160827
0.159537
0.158892
0.159537
0.159860
0.160505
0.159537
0.159215
0.159215
0.157925
0.159537
0.158892
0.159860
0.159537
0.160182
0.158570
0.158892
0.159215
0.159860
0.158247
0.158570
0.158892
0.158892
0.157602
0.158570
0.158892
0.158892
0.157925
0.158570
0.158247
0.158892
0.157925
0.157925
0.158247
0.158247
0.158247
0.158247
0.157602
0.157602
0.157925
0.157280
0.158570
0.158892
0.158247
0.157280
0.158570
0.158570
0.157925
0.157602
0.157280
0.157925
0.158247
0.156957
0.157602
0.157925
0.158247
0.159215
0.158570
0.158247
0.158570
0.158892
0.158247
0.158570
0.158247
0.158570
0.158247
0.161150
0.158570
0.159215
0.158247
0.158570
0.158892
0.158892
0.158247
0.157925
0.158570
0.158570
0.161150
0.158570
0.158892
0.158892
0.159215
0.158247
0.158892
0.159215
0.159537
0.159537
0.154055
0.158247
0.160505
0.158892
0.159215
0.159215
0.159860
0.159215
0.159215
0.158570
0.158892
0.164374
0.158892
0.159537
0.159860
0.159860
0.158892
0.159215
0.159537
0.160505
0.159860
0.159215
0.161794
0.158892
0.158892
0.159537
0.159860
0.160827
0.159537
0.158570
0.159215
0.159537
0.159537
0.159537
0.159215
0.159215
0.159537
0.158570
0.158570
0.159537
0.159537
0.158570
0.158892
0.158570
0.159215
0.158570
0.158892
0.158892
0.159215
0.158570
0.158570
0.158570
0.159215
0.158892
0.158570
0.159537
0.158892
0.159537
0.159215
0.158892
0.158570
0.159215
0.159215
0.158892
0.158892
0.160182
0.158892
0.158570
0.159215
0.159215
0.159537
0.159215
0.158892
0.158892
0.159860
0.158570
0.158892
0.160182
0.159537
0.158892
0.158892
0.158892
0.160505
0.159860
0.158892
0.160182
0.160182
0.159537
0.159215
0.159537
0.159215
0.160182
0.159537
0.160182
0.158892
0.159860
0.158570
0.160182
0.160182
0.160505
0.159215
0.158892
0.158892
0.159215
0.158892
0.158892
0.158570
0.159537
0.158570
0.157925
0.158570
0.159215
0.159215
0.158570
0.157602
0.158247
0.158892
0.157925
0.158247
0.159215
0.158570
0.158892
0.158247
0.157925
0.158570
0.158892
0.157925
0.158247
0.158247
0.158247
0.156635
0.156635
0.157925
0.159215
0.158247
0.157602
0.158570
0.158570
0.158247
0.158247
0.157925
0.158570
0.162117
0.157925
0.157925
0.157925
0.158570
0.158892
0.158247
0.158892
0.159860
0.158892
0.157602
0.160182
0.159537
0.158570
0.158892
0.159860
0.160182
0.159537
0.158570
0.159215
0.159215
0.159860
0.159215
0.159215
0.159215
0.160827
0.158892
0.159215
0.158892
0.159537
0.159860
0.158892
0.164374
0.160505
0.159537
0.159215
0.159215
0.159537
0.159537
0.158892
0.159215
0.159537
0.159537
0.159537
0.158892
0.159215
0.160182
0.159537
0.158247
0.159215
0.159860
0.158892
0.158892
0.158892
0.159537
0.158892
0.159537
0.158247
0.159215
0.158892
0.158892
0.158570
0.158892
0.159537
0.158892
0.158247
0.159215
0.159215
0.158892
0.158247
0.159215
0.158570
0.158892
0.158570
0.158247
0.158247
0.158570
0.158247
0.158892
0.158892
0.158570
0.158570
0.158892
0.159215
0.159860
0.158570
0.158892
0.160182
0.160182
0.158892
0.159537
0.159860
0.160182
0.159860
0.159537
0.159537
0.160827
0.160505
0.159537
0.159537
0.159537
0.161472
0.159860
0.159860
0.160827
0.160505
0.159860
0.159860
0.159537
0.160182
0.160182
0.159215
0.159215
0.159537
0.159860
0.159537
0.159537
0.158892
0.160827
0.159860
0.159860
0.158892
0.160505
0.159215
0.158892
0.158892
0.159537
0.158892
0.158892
0.158570
0.158247
0.158570
0.158892
0.158892
0.157925
0.159215
0.157602
0.157925
0.158247
0.158570
0.158570
0.157925
0.158247
0.158247
0.157602
0.157602
0.158570
0.157602
0.158247
0.158247
0.158247
0.157925
0.160505
0.157280
0.158570
0.158247
0.157602
0.157925
0.157925
0.158570
0.158247
0.158247
0.157925
0.161472
0.158892
0.157925
0.157602
0.158570
0.158570
0.158247
0.157925
0.159215
0.159215
0.157280
0.158570
0.158892
0.159537
0.159215
0.157925
0.159215
0.158570
0.159215
0.157925
0.157925
0.155667
0.159860
0.158570
0.158570
0.159215
0.159537
0.158892
0.159537
0.158570
0.160182
0.159537
0.161472
0.158892
0.159537
0.159537
0.159215
0.158892
0.159860
0.160182
0.158892
0.159537
0.158892
0.159860
0.159860
0.158892
0.159215
0.158892
0.160182
0.159215
0.159215
0.159537
0.158892
0.158570
0.159537
0.158892
0.159860
0.158892
0.158892
0.158892
0.158570
0.157925
0.158570
0.158892
0.158892
0.159215
0.158892
0.159215
0.159537
0.158247
0.158570
0.158247
0.158892
0.158892
0.157602
0.157925
0.159215
0.157602
0.158570
0.158247
0.158570
0.159537
0.159860
0.157925
0.159215
0.159860
0.158892
0.158892
0.159860
0.159860
0.160182
0.159215
0.158892
0.160827
0.160182
0.159860
0.160182
0.160182
0.160505
0.160827
0.160827
0.160182
0.161472
0.160182
0.159215
0.161472
0.159215
0.159860
0.158892
0.160505
0.159860
0.159860
0.159537
0.160182
0.160182
0.160182
0.159215
0.159860
0.160182
0.160827
0.159537
0.159215
0.159215
0.159860
0.159537
0.158570
0.159860
0.160182
0.159215
0.158570
0.159860
0.159537
0.159860
0.158892
0.157925
0.159215
0.159537
0.158570
0.158247
0.157925
0.158570
0.155023
0.158247
0.158247
0.159215
0.158570
0.158247
0.159537
0.158247
0.158247
0.158570
0.158247
0.163084
0.158892
0.158247
0.158247
0.157602
0.158247
0.158247
0.158247
0.158247
0.158892
0.158570
0.161472
0.158570
0.158570
0.158570
0.158892
0.158570
0.158247
0.159537
0.158570
0.159537
0.157925
0.158892
0.158247
0.158892
0.159215
0.159537
0.158892
0.158892
0.158892
0.159215
0.158570
0.159215
0.159860
0.159537
0.159537
0.158570
0.159537
0.159215
0.160505
0.158570
0.158570
0.158892
0.162117
0.159215
0.158247
0.159537
0.159215
0.159537
0.158892
0.159215
0.159860
0.160182
0.157925
0.159537
0.159215
0.159860
0.158892
0.157925
0.158892
0.160182
0.158892
0.158892
0.159537
0.159215
0.160182
0.160505
0.159537
0.159537
0.159860
0.158892
0.159215
0.158247
0.159537
0.159537
0.159537
0.158892
0.160182
0.159860
0.159215
0.159537
0.159860
0.159537
0.158892
0.159215
0.159537
0.158892
0.158892
0.159537
0.158892
0.159215
0.158570
0.158570
0.158892
0.159860
0.158247
0.159537
0.158570
0.158892
0.158892
0.158570
0.159537
0.160505
0.159215
0.158892
0.160182
0.160505
0.160505
0.158892
0.159860
0.161150
0.160505
0.159537
0.160182
0.160827
0.160827
0.159860
0.158892
0.160505
0.161150
0.160182
0.158892
0.160182
0.160505
0.160827
0.159215
0.159860
0.159537
0.160182
0.159537
0.158892
0.159215
0.161150
0.159215
0.159537
0.159860
0.160505
0.159537
0.158570
0.159860
0.159537
0.155023
0.158892
0.159215
0.158892
0.159215
0.158570
0.159215
0.158570
0.157925
0.158570
0.158570
0.162439
0.158892
0.157925
0.158892
0.158247
0.158892
0.157925
0.157602
0.158570
0.158892
0.156957
0.158570
0.159215
0.158570
0.158247
0.157925
0.157602
0.157602
0.158570
0.157280
0.157925
0.154055
0.157925
0.158570
0.157602
0.158247
0.159537
0.158570
0.158247
0.158892
0.158570
0.158892
0.160827
0.159215
0.158570
0.158892
0.158247
0.158892
0.158570
0.158892
0.158892
0.158892
0.158247
0.159215
0.158247
0.159215
0.158570
0.159215
0.159537
0.159215
0.159215
0.159860
0.158570
0.159215
0.158892
0.159860
0.159860
0.159860
0.158570
0.160505
0.158892
0.158570
0.159860
0.159537
0.159215
0.158892
0.158892
0.159215
0.159537
0.158892
0.159215
0.159537
0.159215
0.159215
0.159215
0.159215
0.160182
0.159215
0.158892
0.159860
0.159537
0.160182
0.159860
0.159537
0.158570
0.159860
0.158892
0.159215
0.158892
0.159860
0.159537
0.158570
0.159215
0.158892
0.158892
0.159537
0.159215
0.159537
0.158892
0.158892
0.159215
0.158892
0.158570
0.158570
0.158892
0.158570
0.158247
0.158247
0.158892
0.158892
0.159537
0.158247
0.159537
0.159860
0.158892
0.158247
0.159215
0.159215
0.159860
0.159215
0.158570
0.159537
0.160827
0.159860
0.159215
0.160182
0.160505
0.161150
0.160827
0.159215
0.157280
0.160827
0.160182
0.160182
0.160505
0.160505
0.160182
0.159860
0.160182
0.160182
0.159860
0.162762
0.160182
0.160182
0.159860
0.160505
0.160827
0.160505
0.160182
0.159860
0.160827
0.158892
0.160827
0.159215
0.159537
0.160827
0.160182
0.159215
0.159860
0.159860
0.159537
0.159215
0.155023
0.159537
0.159537
0.158247
0.158247
0.158247
0.158892
0.158247
0.157925
0.157602
0.159215
0.160505
0.157925
0.158247
0.159215
0.158892
0.157280
0.157602
0.158247
0.158892
0.158247
0.157602
0.158570
0.159215
0.158570
0.157925
0.157925
0.158247
0.158570
0.158247
0.157280
0.158247
0.159215
0.157602
0.158892
0.158570
0.158892
0.159215
0.158570
0.158570
0.158892
0.158570
0.157925
0.159537
0.158570
0.159215
0.158570
0.159860
0.159537
0.159215
0.158570
0.158570
0.159860
0.158247
0.158892
0.159860
0.159537
0.158892
0.159215
0.159537
0.159215
0.159860
0.157925
0.158892
0.160182
0.160182
0.159860
0.159537
0.159537
0.160827
0.158892
0.159537
0.160182
0.159860
0.159860
0.159215
0.158892
0.160505
0.159860
0.158892
0.159537
0.159860
0.159860
0.159215
0.158892
0.160182
0.160505
0.159537
0.159537
0.159860
0.160182
0.160182
0.159537
0.159537
0.160505
0.159537
0.159860
0.160182
0.158892
0.159860
0.160182
0.159537
0.160182
0.159860
0.159215
0.159215
0.159215
0.158570
0.158892
0.160182
0.160182
0.159860
0.157925
0.159860
0.159860
0.159537
0.158570
0.159215
0.159537
0.159860
0.162762
0.159215
0.159537
0.160182
0.160182
0.158892
0.159860
0.160182
0.160182
0.160182
0.160505
0.161472
0.160827
0.160505
0.159860
0.159860
0.161150
0.159537
0.160505
0.160505
0.160182
0.157925
0.161472
0.159537
0.160505
0.160505
0.160182
0.160182
0.159860
0.160182
0.160505
0.159860
0.161472
0.159215
0.159537
0.159860
0.160505
0.159537
0.158570
0.159860
0.160182
0.159860
0.159215
0.159215
0.159537
0.159537
0.158570
0.158570
0.159215
0.158892
0.158892
0.157602
0.158570
0.158570
0.158570
0.157602
0.158892
0.158892
0.159215
0.158247
0.158247
0.157925
0.157602
0.157925
0.158570
0.157602
0.159215
0.157602
0.157602
0.157925
0.158570
0.157280
0.158570
0.157602
0.157925
0.157925
0.157925
0.158570
0.158247
0.158570
0.158570
0.158892
0.158892
0.157925
0.158247
0.158247
0.158570
0.158570
0.157925
0.158247
0.158892
0.158570
0.158247
0.157925
0.158892
0.159215
0.157602
0.157925
0.159537
0.159860
0.158247
0.158570
0.158570
0.159215
0.158892
0.157925
0.158570
0.158892
0.158892
0.158892
0.158570
0.159537
0.159860
0.158570
0.158247
0.159537
0.159537
0.159537
0.159537
0.158570
0.159215
0.158892
0.158247
0.159537
0.158892
0.159860
0.159860
0.159860
0.158892
0.160505
0.158247
0.159860
0.159860
0.159860
0.159860
0.159860
0.158892
0.159860
0.160182
0.158892
0.159537
0.162762
0.159537
0.158892
0.159215
0.158892
0.159537
0.158892
0.159215
0.159537
0.159537
0.157925
0.159215
0.158892
0.158892
0.159215
0.159215
0.159215
0.158570
0.158570
0.157925
0.158892
0.155990
0.159215
0.158570
0.159215
0.159537
0.159860
0.158892
0.159860
0.159215
0.160505
0.159860
0.161150
0.159860
0.161794
0.160505
0.159537
0.160505
0.160827
0.160827
0.159537
0.160182
0.160505
0.161150
0.160182
0.161150
0.160182
0.161150
0.161150
0.159860
0.159860
0.160827
0.160827
0.160182
0.159537
0.160182
0.160182
0.159860
0.160182
0.159860
0.160505
0.159215
0.160182
0.160827
0.159860
0.159860
0.159860
0.159215
0.159537
0.158892
0.158892
0.160182
0.158570
0.159215
0.158892
0.158892
0.158570
0.159537
0.157925
0.158247
0.158892
0.158247
0.157925
0.159215
0.158570
0.159537
0.157602
0.158247
0.159215
0.158892
0.158570
0.157925
0.158570
0.159215
0.158247
0.157925
0.157280
0.158570
0.158570
0.158247
0.157602
0.158247
0.159215
0.158892
0.158247
0.159537
0.158892
0.158570
0.158570
0.158570
0.159215
0.158570
0.159537
0.159215
0.158247
0.158892
0.159860
0.159215
0.159215
0.159215
0.158570
0.160182
0.159215
0.159537
0.159860
0.159860
0.159537
0.160505
0.158570
0.159215
0.155345
0.159860
0.159537
0.158892
0.159215
0.160505
0.159537
0.159215
0.159860
0.160182
0.160182
0.161150
0.160182
0.159537
0.160505
0.159215
0.159215
0.160182
0.160505
0.159215
0.159860
0.157925
0.160505
0.160505
0.159537
0.159860
0.160505
0.160182
0.159860
0.158892
0.160827
0.160182
0.161150
0.159860
0.160182
0.160182
0.160827
0.159860
0.159860
0.159860
0.160182
0.158892
0.159537
0.159215
0.159537
0.159537
0.159215
0.158892
0.160182
0.158892
0.159215
0.159860
0.159215
0.158892
0.160182
0.158892
0.159860
0.159215
0.159537
0.159537
0.159860
0.158892
0.159860
0.159537
0.159537
0.159537
0.159537
0.159215
0.160505
0.159860
0.159537
0.159860
0.159860
0.160505
0.159860
0.159537
0.159215
0.159860
0.159860
0.159215
0.159860
0.159537
0.160827
0.158892
0.159860
0.159860
0.160505
0.160182
0.159860
0.159537
0.161150
0.159860
0.160505
0.159215
0.159860
0.159860
0.160182
0.158892
0.160182
0.160505
0.159860
0.159537
0.159537
0.159860
0.159537
0.159860
0.158570
0.159860
0.159537
0.159215
0.158892
0.159537
0.158892
0.158892
0.158892
0.158570
0.158892
0.158892
0.157925
0.158247
0.158570
0.158570
0.158570
0.158892
0.158892
0.157602
0.157925
0.158570
0.158570
0.157925
0.154378
0.158570
0.158247
0.158570
0.157925
0.158570
0.158570
0.158247
0.157602
0.158892
0.159215
0.161794
0.157602
0.159215
0.159215
0.158570
0.158570
0.159860
0.158892
0.159215
0.158570
0.157925
0.160182
0.160505
0.159860
0.158570
0.159215
0.159860
0.159537
0.159537
0.158570
0.160182
0.155667
0.158892
0.159537
0.159537
0.160505
0.160182
0.158892
0.159860
0.159860
0.160182
0.159537
0.162439
0.159860
0.160182
0.160182
0.159537
0.159537
0.160505
0.159537
0.160182
0.159860
0.159860
0.159537
0.159215
0.159860
0.160182
0.158892
0.159860
0.161150
0.160182
0.159537
0.160182
0.160827
0.160182
0.160505
0.158892
0.160505
0.160182
0.159860
0.158892
0.159860
0.160182
0.159860
0.159537
0.159215
0.160182
0.160182
0.159860
0.159537
0.159860
0.160182
0.160827
0.158570
0.159537
0.159537
0.160182
0.158570
0.157280
0.159215
0.159860
0.158892
0.159215
0.159215
0.160182
0.158570
0.159215
0.159537
0.160505
0.159537
0.158892
0.160182
0.160182
0.159860
0.159537
0.160505
0.159860
0.159860
0.158892
0.160182
0.160182
0.160505
0.159860
0.160505
0.160182
0.159860
0.159537
0.160182
0.160182
0.161794
0.159215
0.159537
0.161150
0.161472
0.160505
0.159537
0.159537
0.159860
0.160182
0.158892
0.159537
0.160182
0.160827
0.160505
0.158892
0.160505
0.160505
0.159537
0.159537
0.159537
0.164697
0.160505
0.159215
0.159215
0.160182
0.159860
0.158892
0.159537
0.159215
0.159537
0.158570
0.161472
0.158892
0.160182
0.157925
0.158570
0.157602
0.158892
0.159860
0.159215
0.156635
0.158247
0.158247
0.158892
0.158892
0.158570
0.159215
0.158892
0.158570
0.158570
0.159860
0.156957
0.160182
0.159215
0.158247
0.158892
0.158892
0.159215
0.158892
0.158892
0.158892
0.159215
0.157925
0.158892
0.158570
0.159215
0.158892
0.159537
0.158892
0.158570
0.159860
0.159860
0.158570
0.159215
0.159215
0.160505
0.159537
0.158570
0.159860
0.159860
0.159537
0.158892
0.159537
0.160182
0.160505
0.158892
0.159860
0.159537
0.160505
0.158892
0.159215
0.159860
0.161472
0.159537
0.159860
0.159537
0.160505
0.160505
0.159860
0.159537
0.161150
0.160827
0.159537
0.159215
0.160505
0.159860
0.160182
0.159860
0.158892
0.160505
0.159215
0.160182
0.159860
0.159537
0.159860
0.159860
0.160182
0.159537
0.159537
0.159215
0.159860
0.160505
0.159860
0.159215
0.160182
0.159860
0.159537
0.159215
0.159215
0.159537
0.160182
0.158247
0.160505
0.158892
0.159215
0.158892
0.159537
0.159215
0.159860
0.158892
0.159215
0.159860
0.159860
0.160182
0.158892
0.159537
0.160505
0.159860
0.159215
0.159215
0.156312
0.160827
0.159215
0.158570
0.160182
0.160182
0.160505
0.159215
0.159860
0.160505
0.159537
0.163084
0.159860
0.160182
0.160827
0.159860
0.160182
0.159215
0.160182
0.160182
0.159860
0.159537
0.163407
0.159537
0.160505
0.159215
0.160182
0.160182
0.159860
0.160182
0.160505
0.159860
0.155667
0.159215
0.159215
0.159537
0.159215
0.159537
0.159215
0.159537
0.157925
0.158892
0.158247
0.164052
0.158570
0.158892
0.158247
0.158892
0.158570
0.158247
0.159215
0.159215
0.159537
0.158892
0.158892
0.158247
0.159537
0.157925
0.158570
0.158570
0.159215
0.158892
0.158892
0.159215
0.159215
0.158570
0.158247
0.158247
0.158247
0.159215
0.158247
0.158570
0.159537
0.159215
0.158570
0.158570
0.157925
0.159537
0.159215
0.158570
0.158892
0.160505
0.158892
0.159537
0.158570
0.159215
0.159537
0.159537
0.159860
0.160182
0.159537
0.159860
0.160505
0.159537
0.159860
0.159537
0.160182
0.160182
0.160182
0.159860
0.159860
0.160505
0.160182
0.158570
0.159537
0.161150
0.160182
0.160505
0.159860
0.160505
0.160505
0.160505
0.159860
0.160182
0.161150
0.160505
0.159860
0.160505
0.160827
0.160505
0.161150
0.160505
0.161150
0.161472
0.160505
0.159537
0.160505
0.161150
0.159860
0.159537
0.159860
0.160182
0.159860
0.159860
0.160505
0.159860
0.160827
0.160182
0.160182
0.160827
0.160505
0.158247
0.160827
0.160827
0.160827
0.159860
0.160182
0.160182
0.160182
0.158892
0.159537
0.160182
0.164052
0.158892
0.160182
0.159537
0.159860
0.159860
0.159215
0.159537
0.160182
0.160505
0.158570
0.159537
0.160505
0.160505
0.159215
0.159860
0.160827
0.160182
0.159860
0.158247
0.159860
0.163407
0.161150
0.159860
0.160505
0.160182
0.159860
0.159860
0.158892
0.159860
0.160505
0.159537
0.161472
0.159860
0.160505
0.159860
0.159860
0.160182
0.160827
0.160182
0.160182
0.159860
0.160182
0.160505
0.159860
0.159215
0.160505
0.159537
0.160182
0.159860
0.159537
0.159537
0.158892
0.158892
0.159215
0.158892
0.158570
0.159537
0.159860
0.158892
0.158892
0.159215
0.159215
0.159537
0.158247
0.158892
0.159537
0.159860
0.159215
0.158570
0.158570
0.159215
0.158892
0.156635
0.158247
0.158892
0.159215
0.157925
0.158247
0.158570
0.158570
0.158570
0.157925
0.158570
0.159537
0.158892
0.157925
0.159215
0.159860
0.158892
0.158892
0.158892
0.159537
0.159537
0.157925
0.158892
0.160182
0.159215
0.159215
0.158892
0.157925
0.159537
0.158570
0.158247
0.157925
0.159215
0.158892
0.159215
0.159215
0.159215
0.159860
0.159537
0.159860
0.158892
0.159537
0.159860
0.159537
0.159215
0.159537
0.157602
0.159860
0.160182
0.160182
0.158892
0.158892
0.160182
0.159860
0.159215
0.159537
0.160505
0.160827
0.160182
0.159537
0.160182
0.160182
0.160505
0.158892
0.160182
0.160505
0.160505
0.159537
0.159860
0.159860
0.161472
0.159860
0.159537
0.159860
0.160827
0.160505
0.159537
0.159537
0.158892
0.159215
0.159860
0.160182
0.160182
0.160505
0.158892
0.159537
0.159537
0.160182
0.159537
0.163084
0.158892
0.159860
0.160182
0.158570
0.159215
0.159537
0.158892
0.159537
0.159537
0.160182
0.159537
0.158892
0.159215
0.159860
0.159537
0.159215
0.160182
0.159860
0.159860
0.159215
0.159215
0.160182
0.160182
0.158892
0.159537
0.160182
0.159860
0.159860
0.158570
0.160182
0.159537
0.159537
0.158892
0.159215
0.159537
0.159537
0.158892
0.158892
0.159215
0.160182
0.159215
0.159860
0.160827
0.160182
0.159537
0.159537
0.159537
0.159860
0.159860
0.159537
0.159537
0.159537
0.159215
0.158892
0.158892
0.158892
0.159215
0.159537
0.159215
0.158892
0.159537
0.158570
0.157925
0.159860
0.159215
0.158892
0.158570
0.159537
0.159860
0.158247
0.158247
0.159537
0.159215
0.158247
0.157602
0.157925
0.159215
0.158570
0.157602
0.158892
0.158570
0.158570
0.158570
0.157925
0.158247
0.159537
0.155990
0.158247
0.157925
0.159215
0.159860
0.158247
0.158570
0.159537
0.159215
0.158892
0.159537
0.155345
0.159860
0.159537
0.158570
0.158892
0.159215
0.159215
0.158247
0.157925
0.159860
0.159537
0.162439
0.158892
0.159860
0.159860
0.159215
0.158892
0.159537
0.159537
0.158892
0.158892
0.159537
0.159860
0.159537
0.160505
0.159537
0.159537
0.159860
0.158570
0.159537
0.158570
0.158892
0.158892
0.159215
0.160182
0.160182
0.158892
0.159860
0.160182
0.160182
0.158570
0.159537
0.159860
0.163729
0.159537
0.159860
0.160505
0.160505
0.159537
0.158570
0.159860
0.160505
0.159860
0.159215
0.160505
0.160182
0.160182
0.159215
0.158892
0.160505
0.159215
0.159860
0.159860
0.158892
0.159860
0.160827
0.158892
0.159860
0.159537
0.159860
0.158892
0.158892
0.159537
0.159860
0.158892
0.159537
0.159860
0.160827
0.159215
0.159860
0.159215
0.160505
0.159537
0.159537
0.159537
0.160505
0.159860
0.159537
0.158892
0.159860
0.160827
0.159860
0.160182
0.159537
0.160182
0.159537
0.159215
0.160182
0.160827
0.159215
0.159860
0.161150
0.160182
0.160182
0.159537
0.159860
0.159860
0.160182
0.158892
0.161150
0.160182
0.159860
0.159537
0.159860
0.160505
0.160505
0.159215
0.159537
0.160182
0.161472
